timestamps,Fz,C3,Cz,C4,Pz,PO7,Oz,PO8,stim
1772497103.2026,225160.046875,234093.671875,232428.5625,552542.8125,598326.125,235443.1875,707142.25,209530.984375,0.0
1772497103.2113447,225216.09375,234094.921875,232426.6875,552519.9375,598229.6875,235451.859375,707144.0625,209530.1875,0.0
1772497103.215129,225223.875,234096.890625,232423.109375,552483.5625,598130.75,235451.59375,707143.3125,209537.59375,0.0
1772497103.219416,225199.921875,234094.84375,232416.40625,552413.8125,598002.5625,235452.75,707145.5625,209533.84375,0.0
1772497103.2194333,225200.625,234101.28125,232420.15625,552337.625,597853.5,235457.484375,707147.875,209535.015625,0.0
1772497103.2326405,225253.65625,234104.578125,232421.40625,552310.375,597747.625,235460.171875,707150.875,209532.5,0.0
1772497103.238256,225270.8125,234101.8125,232413.71875,552275.125,597650.625,235459.015625,707152.75,209525.703125,0.0
1772497103.2382886,225262.140625,234100.296875,232409.515625,552218.3125,597541.625,235461.421875,707153.6875,209524.015625,0.0
1772497103.2406783,225242.46875,234095.015625,232401.640625,552127.8125,597391.8125,235458.03125,707154.25,209517.125,0.0
1772497103.2406952,225295.671875,234089.65625,232399.0625,552090.5,597289.6875,235456.328125,707157.5625,209512.125,0.0
1772497103.2476199,225316.859375,234082.234375,232392.796875,552051.875,597200.5625,235449.265625,707160.5625,209508.359375,0.0
1772497103.2525976,225307.65625,234081.609375,232387.96875,551998.625,597102.625,235446.671875,707163.5625,209504.96875,0.0
1772497103.2550828,225278.421875,234086.703125,232384.21875,551909.9375,596954.9375,235448.1875,707165.3125,209504.96875,0.0
1772497103.2588313,225324.453125,234084.90625,232376.171875,551869.1875,596844.1875,235449.625,707168.125,209500.671875,0.0
1772497103.2625625,225354.671875,234081.25,232368.65625,551833.125,596761.3125,235447.296875,707169.5625,209497.015625,0.0
1772497103.280146,225350.484375,234081.875,232370.625,551782.4375,596670.8125,235453.640625,707172.6875,209507.296875,0.0
1772497103.2832367,225315.875,234081.34375,232368.203125,551686.0625,596526.875,235455.34375,707171.5,209506.84375,0.0
1772497103.2832563,225353.25,234091.703125,232373.578125,551637.125,596412.5,235464.828125,707174.25,209515.609375,0.0
1772497103.2850754,225392.671875,234094.921875,232370.984375,551611.375,596332.5625,235468.390625,707176.9375,209519.984375,0.0
1772497103.2875774,225401.53125,234097.34375,232367.046875,551568.5625,596259.75,235472.78125,707177.375,209527.3125,0.0
1772497103.290072,225368.53125,234102.703125,232366.328125,551476.0625,596133.6875,235477.515625,707177.5,209533.3125,0.0
1772497103.29897,225389.453125,234113.25,232372.859375,551415.4375,596016.0625,235488.421875,707180.25,209542.078125,0.0
1772497103.3019211,225428.171875,234112.265625,232368.75,551382.625,595933.625,235489.859375,707182.5,209543.859375,0.0
1772497103.3019404,225421.015625,234106.546875,232360.609375,551335.0625,595850.6875,235488.15625,707183.8125,209538.9375,0.0
1772497103.3038275,225378.546875,234105.65625,232356.59375,551243.5,595723.9375,235483.859375,707181.5,209535.640625,0.0
1772497103.306328,225382.84375,234120.859375,232366.15625,551169.75,595592.3125,235496.375,707186.4375,209546.1875,0.0
1772497103.3100767,225427.546875,234127.921875,232368.125,551134.6875,595500.1875,235504.78125,707190.125,209553.515625,0.0
1772497103.3182385,225419.40625,234122.109375,232363.65625,551081.1875,595403.0,235501.390625,707190.1875,209552.625,0.0
1772497103.3182535,225371.578125,234116.03125,232353.90625,550986.6875,595265.3125,235495.390625,707187.875,209545.015625,0.0
1772497103.3238454,225345.5625,234119.15625,232348.71875,550886.5625,595099.875,235498.703125,707189.75,209530.1875,0.0
1772497103.3300958,225379.796875,234120.140625,232343.359375,550835.3125,594976.125,235500.859375,707192.5,209524.640625,0.0
1772497103.3325727,225376.5,234116.75,232339.78125,550774.75,594860.9375,235498.96875,707194.375,209528.484375,0.0
1772497103.3350768,225335.015625,234111.640625,232330.65625,550681.8125,594718.1875,235492.0,707195.0,209528.21875,0.0
1772497103.33758,225285.125,234110.65625,232321.09375,550560.9375,594527.5625,235483.328125,707193.3125,209528.65625,0.0
1772497103.3413267,225306.84375,234110.578125,232315.8125,550494.4375,594372.625,235485.390625,707193.6875,209526.328125,0.0
1772497103.3507316,225299.6875,234106.640625,232308.84375,550426.75,594228.6875,235483.5,707194.0,209520.4375,0.0
1772497103.3507712,225252.9375,234098.40625,232300.078125,550332.1875,594064.0625,235475.015625,707193.375,209509.96875,0.0
1772497103.3601975,225191.421875,234100.296875,232299.359375,550212.25,593851.25,235472.953125,707194.375,209510.953125,0.0
1772497103.3625786,225195.265625,234098.140625,232295.078125,550131.5625,593661.125,235472.421875,707195.0,209506.578125,0.0
1772497103.3656669,225197.953125,234101.359375,232300.265625,550073.0625,593500.1875,235480.015625,707196.625,209511.5,0.0
1772497103.365684,225145.90625,234092.78125,232287.296875,549983.375,593320.9375,235474.203125,707194.5,209502.828125,0.0
1772497103.3740408,225065.09375,234092.515625,232285.234375,549854.5625,593088.875,235472.875,707193.9375,209507.734375,0.0
1772497103.3764443,225060.703125,234104.140625,232296.59375,549773.1875,592873.4375,235483.859375,707195.375,209525.0,0.0
1772497103.3813505,225064.546875,234105.125,232300.078125,549717.375,592686.1875,235486.8125,707195.75,209535.546875,0.0
1772497103.3838308,225027.546875,234099.75,232294.09375,549642.1875,592492.75,235481.890625,707196.5625,209538.046875,0.0
1772497103.3863385,224957.71875,234108.515625,232302.046875,549526.5,592248.3125,235484.3125,707196.1875,209552.0,0.0
1772497103.3888428,224940.1875,234117.09375,232309.203125,549437.125,592005.5,235489.59375,707196.4375,209556.828125,0.0
1772497103.4032843,224950.734375,234121.03125,232312.0625,549385.0,591799.9375,235490.921875,707197.6875,209556.203125,0.0
1772497103.4033058,224923.46875,234126.484375,232311.4375,549324.1875,591601.1875,235494.0625,707196.875,209563.171875,0.0
1772497103.4075704,224867.953125,234139.265625,232316.796875,549224.6875,591364.25,235506.578125,707197.0625,209577.03125,0.0
1772497103.4100769,224838.265625,234148.921875,232316.984375,549127.75,591105.75,235511.3125,707196.1875,209580.78125,0.0
1772497103.4125938,224857.578125,234150.890625,232313.765625,549074.125,590893.6875,235510.59375,707198.4375,209580.34375,0.0
1772497103.4150934,224845.59375,234155.015625,232317.875,549019.25,590698.4375,235520.15625,707200.375,209592.40625,0.0
1772497103.421922,224792.484375,234158.578125,232324.046875,548930.0625,590468.5625,235525.171875,707201.1875,209601.796875,0.0
1772497103.42194,224746.171875,234158.140625,232323.859375,548822.1875,590194.1875,235522.671875,707198.3125,209600.28125,0.0
1772497103.4263346,224773.265625,234153.84375,232320.375,548767.4375,589967.0,235522.21875,707200.5625,209596.703125,0.0
1772497103.4288387,224769.515625,234153.75,232320.015625,548712.625,589761.0,235523.46875,707203.625,209597.234375,0.0
1772497103.437592,224721.234375,234148.03125,232310.09375,548618.0625,589520.9375,235514.890625,707200.625,209583.375,0.0
1772497103.4406729,224665.34375,234153.671875,232312.859375,548505.75,589246.4375,235518.203125,707202.625,209584.8125,0.0
1772497103.440692,224686.265625,234158.578125,232310.90625,548447.3125,589013.9375,235519.53125,707204.3125,209583.828125,0.0
1772497103.446471,224678.765625,234153.125,232297.125,548387.5,588798.4375,235514.890625,707204.6875,209578.28125,0.0
1772497103.4582677,224637.015625,234148.484375,232288.8125,548308.0625,588564.3125,235505.859375,707202.375,209575.328125,0.0
1772497103.4582953,224575.046875,234152.765625,232291.40625,548193.4375,588284.25,235501.484375,707202.875,209576.140625,0.0
1772497103.4606528,224591.046875,234158.140625,232298.03125,548130.25,588037.9375,235504.703125,707203.3125,209568.453125,0.0
1772497103.4606626,224588.640625,234145.796875,232286.84375,548071.5,587806.5625,235498.890625,707202.625,209549.765625,0.0
1772497103.4625793,224554.484375,234139.71875,232276.65625,547997.9375,587570.4375,235495.671875,707201.6875,209548.421875,0.0
1772497103.4713604,224495.921875,234146.6875,232278.984375,547888.125,587293.4375,235500.9375,707204.0625,209555.484375,0.0
1772497103.4756737,224494.5,234160.28125,232287.390625,547816.1875,587036.75,235516.234375,707207.875,209558.703125,0.0
1772497103.475688,224494.140625,234156.265625,232281.03125,547755.8125,586799.5625,235516.234375,707206.25,209563.96875,0.0
1772497103.4883168,224476.25,234167.4375,232285.59375,547697.0,586575.3125,235528.390625,707207.5,209579.171875,0.0
1772497103.4883451,224416.359375,234172.53125,232289.265625,547591.9375,586303.375,235536.4375,707209.5625,209590.0,0.0
1772497103.4900708,224397.578125,234179.328125,232295.515625,547507.875,586027.125,235542.6875,707210.375,209599.46875,0.0
1772497103.4938233,224424.484375,234193.1875,232309.375,547470.75,585797.9375,235558.515625,707211.375,209620.5625,0.0
1772497103.500657,224407.765625,234188.09375,232303.296875,547414.0,585566.0,235559.328125,707208.0,209616.90625,0.0
1772497103.5006683,224357.171875,234189.78125,232301.609375,547326.625,585307.1875,235559.59375,707211.75,209617.53125,0.0
1772497103.506374,224337.234375,234194.53125,232299.640625,547242.1875,585037.5625,235565.765625,707214.4375,209626.5625,0.0
1772497103.5157192,224372.546875,234195.59375,232296.59375,547203.25,584811.0,235567.546875,707215.3125,209625.84375,0.0
1772497103.515752,224376.484375,234203.734375,232302.578125,547167.6875,584599.375,235574.96875,707220.3125,209632.015625,0.0
1772497103.51758,224345.546875,234212.671875,232310.0,547096.1875,584362.5,235579.796875,707223.0,209645.609375,0.0
1772497103.525098,224320.59375,234221.796875,232317.609375,547011.4375,584091.625,235580.25,707223.6875,209652.125,0.0
1772497103.5338356,224375.140625,234232.53125,232323.0625,546990.1875,583881.3125,235591.0625,707226.5625,209654.90625,0.0
1772497103.5363345,224383.0,234231.453125,232317.34375,546951.9375,583683.75,235594.1875,707228.375,209656.59375,0.0
1772497103.5388231,224355.109375,234222.0625,232306.875,546887.3125,583466.1875,235583.90625,707227.0,209640.234375,0.0
1772497103.5413344,224326.859375,234221.4375,232302.5,546802.0,583210.9375,235575.234375,707227.9375,209631.296875,0.0
1772497103.5438375,224370.3125,234228.234375,232307.140625,546768.5,582997.1875,235578.28125,707228.875,209628.890625,0.0
1772497103.5463498,224401.875,234232.96875,232312.78125,546743.75,582813.375,235581.671875,707231.0625,209628.890625,0.0
1772497103.5733662,224399.640625,234231.90625,232315.8125,546699.9375,582628.75,235580.78125,707235.5,209628.34375,0.0
1772497103.5733936,224368.25,234228.953125,232313.21875,546611.875,582392.875,235577.03125,707236.9375,209629.0625,0.0
1772497103.5750773,224407.859375,234229.84375,232309.015625,546571.6875,582189.5,235580.328125,707237.125,209624.6875,0.0
1772497103.5782385,224440.9375,234230.921875,232303.390625,546545.25,582019.3125,235582.125,707238.5625,209625.3125,0.0
1772497103.5782492,224439.328125,234222.421875,232297.671875,546503.1875,581847.75,235582.390625,707241.5625,209630.40625,0.0
1772497103.5800753,224397.125,234210.4375,232284.609375,546412.9375,581621.1875,235575.0625,707240.4375,209624.59375,0.0
1772497103.5824263,224429.40625,234219.5625,232282.828125,546369.75,581427.9375,235585.703125,707246.625,209622.984375,0.0
1772497103.5913632,224471.34375,234224.75,232279.25,546347.75,581267.4375,235594.1875,707248.9375,209629.953125,0.0
1772497103.5913973,224473.390625,234227.515625,232279.15625,546314.75,581106.6875,235597.40625,707249.0,209636.484375,0.0
1772497103.5914052,224447.203125,234232.96875,232278.796875,546245.875,580915.25,235603.9375,707252.3125,209647.21875,0.0
1772497103.593819,224453.09375,234235.75,232276.484375,546178.0625,580713.0,235604.109375,707254.9375,209652.40625,0.0
1772497103.5963225,224496.8125,234239.5,232279.875,546152.9375,580550.1875,235604.65625,707256.0,209653.03125,0.0
1772497103.59882,224503.078125,234226.796875,232275.140625,546111.625,580390.875,235598.84375,707253.375,209641.84375,0.0
1772497103.6032345,224477.0625,234230.015625,232272.359375,546036.0625,580197.5625,235596.34375,707251.875,209642.125,0.0
1772497103.603246,224487.4375,234252.546875,232290.609375,545981.4375,580007.9375,235613.765625,707256.0,209668.5,0.0
1772497103.6063216,224539.28125,234258.71875,232285.953125,545954.1875,579854.6875,235619.859375,707258.6875,209667.234375,0.0
1772497103.6151388,224554.484375,234253.71875,232273.34375,545920.625,579715.4375,235613.140625,707261.0625,209661.875,0.0
1772497103.6194353,224537.234375,234253.359375,232269.328125,545854.125,579550.625,235611.0,707263.6875,209660.453125,0.0
1772497103.6194572,224517.203125,234252.375,232264.59375,545765.1875,579345.4375,235608.59375,707262.3125,209658.5625,0.0
1772497103.6213284,224571.390625,234250.40625,232257.171875,545732.25,579190.5625,235610.109375,707263.875,209654.640625,0.0
1772497103.6351345,224587.296875,234250.140625,232254.84375,545695.1875,579049.9375,235608.765625,707265.1875,209654.71875,0.0
1772497103.63825,224571.390625,234253.265625,232256.09375,545634.25,578891.5,235607.875,707266.25,209657.234375,0.0
1772497103.6382692,224546.890625,234247.453125,232251.0,545546.75,578696.375,235611.0,707267.625,209657.40625,0.0
1772497103.6400793,224588.8125,234244.765625,232241.34375,545500.5,578532.75,235609.390625,707267.875,209649.8125,0.0
1772497103.6425834,224622.703125,234253.0,232244.375,545469.875,578405.25,235613.859375,707273.25,209654.984375,0.0
1772497103.648824,224610.09375,234243.4375,232241.875,545413.25,578258.3125,235607.609375,707274.5625,209647.921875,0.0
1772497103.6632702,224558.328125,234229.65625,232228.90625,545304.375,578051.5625,235588.921875,707272.6875,209631.75,0.0
1772497103.6632988,224587.296875,234228.953125,232225.78125,545252.3125,577879.375,235589.453125,707273.6875,209633.0,0.0
1772497103.6650932,224616.265625,234229.578125,232228.28125,545217.625,577734.875,235594.453125,707274.125,209633.09375,0.0
1772497103.6675875,224604.109375,234220.71875,232216.484375,545162.8125,577584.6875,235581.234375,707275.9375,209623.703125,0.0
1772497103.6738255,224552.703125,234216.609375,232204.0625,545061.0,577379.375,235573.8125,707276.1875,209626.5625,0.0
1772497103.676326,224559.21875,234225.546875,232200.75,544998.25,577188.125,235581.5,707280.375,209641.046875,0.0
1772497103.678817,224582.375,234230.203125,232194.9375,544963.0,577030.9375,235582.21875,707283.8125,209642.46875,0.0
1772497103.6834757,224564.671875,234231.1875,232189.125,544908.375,576866.25,235579.625,707282.875,209649.53125,0.0
1772497103.6834967,224515.6875,234239.671875,232190.921875,544812.0,576661.375,235585.4375,707283.25,209661.703125,0.0
1772497103.6863039,224506.296875,234252.015625,232193.59375,544730.4375,576450.25,235596.25,707285.9375,209667.953125,0.0
1772497103.6976464,224532.21875,234255.953125,232200.578125,544687.25,576277.0625,235609.484375,707288.6875,209679.75,0.0
1772497103.7006552,224509.15625,234256.21875,232197.171875,544625.5,576093.25,235612.796875,707290.4375,209683.875,0.0
1772497103.700672,224445.40625,234262.390625,232193.78125,544526.0625,575859.4375,235615.296875,707289.9375,209684.765625,0.0
1772497103.7025795,224404.015625,234265.421875,232186.453125,544415.9375,575595.5625,235618.328125,707287.125,209689.6875,0.0
1772497103.716426,224404.734375,234260.515625,232174.546875,544346.4375,575363.375,235615.734375,707283.0625,209681.09375,0.0
1772497103.7194223,224369.421875,234252.734375,232163.015625,544276.4375,575145.8125,235613.953125,707281.9375,209676.359375,0.0
1772497103.7194383,224301.203125,234242.625,232149.515625,544176.125,574901.3125,235605.8125,707280.1875,209671.71875,0.0
1772497103.7213228,224257.203125,234254.25,232153.8125,544070.875,574634.25,235614.578125,707281.75,209683.875,0.0
1772497103.727599,224277.328125,234267.578125,232155.78125,544018.9375,574409.625,235628.796875,707284.9375,209697.90625,0.0
1772497103.730076,224250.328125,234262.65625,232142.09375,543947.9375,574178.4375,235622.796875,707283.875,209697.734375,0.0
1772497103.7363515,224183.71875,234258.546875,232135.9375,543852.0625,573920.6875,235613.6875,707284.4375,209696.03125,0.0
1772497103.7419171,224106.46875,234254.609375,232130.203125,543723.375,573613.125,235608.671875,707284.875,209694.0625,0.0
1772497103.7419338,224118.984375,234268.109375,232137.453125,543660.0625,573351.875,235621.640625,707289.3125,209702.203125,0.0
1772497103.7438405,224100.5625,234267.65625,232138.34375,543589.875,573093.1875,235624.6875,707289.3125,209707.03125,0.0
1772497103.7500916,224040.125,234248.625,232132.09375,543498.6875,572817.6875,235617.265625,707288.625,209699.78125,0.0
1772497103.753829,223955.8125,234247.71875,232132.625,543368.3125,572492.6875,235613.859375,707285.5,209702.109375,0.0
1772497103.763374,223947.40625,234256.671875,232140.765625,543290.3125,572196.8125,235615.65625,707285.5625,209707.46875,0.0
1772497103.7634056,223938.921875,234260.515625,232139.5,543227.25,571926.0,235612.96875,707285.125,209711.140625,0.0
1772497103.7650998,223886.96875,234261.046875,232134.671875,543148.75,571647.25,235611.359375,707283.875,209710.953125,0.0
1772497103.768822,223800.515625,234266.140625,232131.734375,543023.9375,571318.9375,235611.890625,707283.0625,209712.21875,0.0
1772497103.7776337,223777.453125,234267.390625,232125.46875,542934.1875,571003.5625,235613.421875,707284.6875,209713.203125,0.0
1772497103.7819357,223768.59375,234267.21875,232118.9375,542877.9375,570723.5625,235614.75,707286.625,209711.765625,0.0
1772497103.7819552,223716.46875,234265.34375,232109.828125,542809.0,570436.3125,235609.03125,707285.6875,209713.109375,0.0
1772497103.7876756,223640.21875,234271.78125,232111.078125,542706.75,570112.125,235611.0,707286.125,209717.75,0.0
1772497103.790089,223611.6875,234289.390625,232126.8125,542624.9375,569779.625,235626.828125,707286.5625,209734.109375,0.0
1772497103.8107004,223606.765625,234287.953125,232124.125,542565.375,569481.0,235626.734375,707285.125,209728.390625,0.0
1772497103.8107285,223570.734375,234297.4375,232136.921875,542504.0625,569190.25,235632.8125,707284.75,209735.015625,0.0
1772497103.8125741,223500.46875,234301.453125,232144.421875,542408.75,568864.0,235636.84375,707285.5625,209747.34375,0.0
1772497103.815084,223457.28125,234315.5,232156.5,542314.25,568518.5,235646.5,707285.9375,209757.625,0.0
1772497103.81759,223471.765625,234325.59375,232163.640625,542269.8125,568215.625,235658.296875,707287.5625,209758.4375,0.0
1772497103.8200884,223444.5,234328.546875,232163.640625,542214.25,567916.1875,235667.328125,707287.625,209752.625,0.0
1772497103.8225737,223380.84375,234328.28125,232156.046875,542127.75,567593.8125,235672.25,707287.9375,209751.734375,0.0
1772497103.8250856,223317.90625,234332.84375,232147.375,542019.4375,567237.5,235674.296875,707289.625,209754.234375,0.0
1772497103.828244,223332.65625,234334.1875,232136.640625,541967.9375,566928.0,235680.109375,707289.3125,209745.109375,0.0
1772497103.8282552,223319.78125,234337.671875,232130.296875,541916.125,566638.125,235685.296875,707290.5,209746.1875,0.0
1772497103.83641,223272.21875,234332.21875,232125.5625,541841.4375,566333.0625,235685.125,707291.5,209747.53125,0.0
1772497103.839427,223210.703125,234335.15625,232125.65625,541737.5625,565985.375,235685.390625,707291.75,209751.734375,0.0
1772497103.8394487,223223.84375,234339.09375,232129.40625,541684.4375,565673.875,235690.9375,707293.375,209753.34375,0.0
1772497103.8426,223235.90625,234335.609375,232137.0,541651.625,565403.125,235700.859375,707296.6875,209763.265625,0.0
1772497103.851344,223203.09375,234329.0,232135.84375,541588.1875,565117.1875,235697.09375,707297.125,209760.046875,0.0
1772497103.855679,223140.96875,234324.875,232131.109375,541480.625,564784.5625,235686.734375,707297.375,209751.015625,0.0
1772497103.8556988,223155.09375,234331.40625,232128.953125,541423.625,564482.1875,235688.15625,707298.875,209754.6875,0.0
1772497103.8638575,223172.4375,234335.609375,232127.53125,541388.4375,564218.75,235689.859375,707302.125,209754.234375,0.0
1772497103.866918,223156.34375,234341.328125,232131.28125,541341.5,563960.5625,235694.5,707303.3125,209756.296875,0.0
1772497103.8669312,223094.5625,234341.421875,232129.21875,541242.25,563650.3125,235688.34375,707301.75,209754.5,0.0
1772497103.8688428,223102.25,234337.21875,232131.015625,541181.6875,563361.8125,235688.34375,707303.8125,209756.296875,0.0
1772497103.8826184,223132.203125,234336.859375,232129.3125,541154.875,563117.1875,235689.953125,707306.5,209753.515625,0.0
1772497103.885133,223115.21875,234332.21875,232122.703125,541111.5,562870.875,235686.90625,707308.3125,209750.484375,0.0
1772497103.8875961,223075.25,234344.109375,232131.90625,541034.0,562589.0625,235693.078125,707308.375,209759.6875,0.0
1772497103.8901055,223084.8125,234358.765625,232143.265625,540979.0,562312.3125,235706.125,707311.5,209772.65625,0.0
1772497103.8925776,223128.359375,234362.34375,232146.296875,540965.625,562082.125,235716.046875,707315.25,209774.796875,0.0
1772497103.9108276,223123.34375,234361.625,232141.109375,540930.5,561854.8125,235711.578125,707314.9375,209769.171875,0.0
1772497103.9108574,223095.359375,234361.984375,232146.390625,540873.1875,561608.8125,235712.203125,707317.6875,209777.484375,0.0
1772497103.9169793,223088.65625,234368.328125,232148.71875,540809.0,561347.0,235718.203125,707319.5625,209788.921875,0.0
1772497103.917004,223141.140625,234372.71875,232144.421875,540794.5625,561137.8125,235724.453125,707322.0625,209793.578125,0.0
1772497103.9219108,223145.609375,234362.609375,232136.5625,540763.75,560931.25,235717.65625,707320.25,209781.859375,0.0
1772497103.921937,223133.8125,234369.578125,232147.28125,540719.0625,560718.5,235726.96875,707324.0,209788.921875,0.0
1772497103.9238229,223119.234375,234375.75,232150.765625,540649.0,560467.8125,235731.4375,707323.25,209789.109375,0.0
1772497103.9269133,223171.890625,234370.125,232149.78125,540632.75,560266.5,235731.171875,707326.1875,209786.515625,0.0
1772497103.926926,223188.609375,234355.640625,232140.484375,540609.625,560077.875,235720.53125,707327.8125,209780.15625,0.0
1772497103.9376514,223185.484375,234360.5625,232149.34375,540576.0,559891.1875,235725.078125,707332.0625,209783.921875,0.0
1772497103.9406765,223154.109375,234353.484375,232137.0,540492.1875,559649.1875,235717.65625,707332.3125,209779.265625,0.0
1772497103.940693,223202.5625,234353.40625,232132.796875,540463.75,559453.4375,235717.3125,707332.875,209780.34375,0.0
1772497103.948838,223237.96875,234353.484375,232130.390625,540444.75,559286.0625,235717.75,707334.125,209784.71875,0.0
1772497103.9556892,223232.6875,234351.4375,232123.234375,540405.75,559110.0625,235714.359375,707335.375,209781.234375,0.0
1772497103.9557047,223196.484375,234355.90625,232121.171875,540322.875,558883.375,235712.75,707334.6875,209775.875,0.0
1772497103.9826708,223234.125,234360.203125,232122.34375,540285.25,558683.875,235712.03125,707335.1875,209770.140625,0.0
1772497103.9826992,223284.375,234365.296875,232129.84375,540276.1875,558525.75,235719.8125,707339.75,209775.875,0.0
1772497103.9827075,223295.375,234343.203125,232122.703125,540248.375,558374.75,235716.953125,707344.5,209778.828125,0.0
1772497103.985086,223252.984375,234342.9375,232112.0625,540157.8125,558158.3125,235699.875,707343.1875,209763.4375,0.0
1772497103.9893708,223269.703125,234342.5,232101.859375,540099.6875,557955.6875,235693.875,707343.625,209751.8125,0.0
1772497103.989396,223318.609375,234332.390625,232094.359375,540080.6875,557799.0,235693.96875,707345.5,209756.296875,0.0
1772497103.989405,223325.765625,234331.765625,232085.765625,540049.5625,557641.8125,235691.375,707346.1875,209759.328125,0.0
1772497103.989411,223296.703125,234334.71875,232078.171875,539974.0,557443.6875,235687.625,707344.6875,209760.9375,0.0
1772497103.991484,223308.6875,234343.296875,232077.453125,539913.5625,557242.5,235689.859375,707349.25,209766.125,0.0
1772497103.993862,223363.40625,234357.875,232079.515625,539900.0,557087.75,235703.71875,707353.625,209775.0625,0.0
1772497104.0000904,223362.328125,234364.40625,232073.609375,539863.5625,556931.75,235703.8125,707353.875,209773.453125,0.0
1772497104.0025766,223335.59375,234351.171875,232065.296875,539796.1875,556759.0,235703.890625,707353.8125,209769.703125,0.0
1772497104.006925,223322.734375,234343.125,232055.46875,539723.5,556562.3125,235706.9375,707356.5625,209764.875,0.0
1772497104.006939,223368.5,234342.140625,232049.5625,539698.8125,556404.6875,235712.203125,707358.875,209767.375,0.0
1772497104.0139687,223377.171875,234342.3125,232048.578125,539666.875,556255.9375,235713.640625,707358.25,209768.359375,0.0
1772497104.0188496,223371.09375,234366.015625,232058.859375,539624.75,556106.25,235726.25,707363.375,209769.25,0.0
1772497104.0263624,223348.828125,234351.25,232055.015625,539546.75,555912.5,235722.9375,707364.1875,209762.90625,0.0
1772497104.0325923,223399.796875,234362.34375,232058.859375,539517.375,555758.8125,235725.890625,707365.125,209759.953125,0.0
1772497104.035088,223423.40625,234352.15625,232049.5625,539493.625,555628.125,235722.21875,707365.625,209757.1875,0.0
1772497104.0375946,223419.640625,234349.828125,232048.3125,539454.5625,555487.1875,235725.625,707370.0625,209758.4375,0.0
1772497104.0400856,223384.15625,234357.875,232049.390625,539370.0,555284.9375,235719.09375,707370.0625,209759.0625,0.0
1772497104.043836,223429.03125,234379.15625,232060.734375,539339.6875,555121.0625,235728.296875,707370.4375,209767.015625,0.0
1772497104.0506802,223456.21875,234365.203125,232051.625,539316.875,554983.8125,235725.625,707372.3125,209759.421875,0.0
1772497104.0506942,223437.171875,234336.234375,232029.359375,539263.9375,554840.4375,235710.59375,707371.4375,209750.390625,0.0
1772497104.0588336,223395.421875,234343.921875,232029.796875,539171.6875,554648.8125,235706.75,707370.875,209757.984375,0.0
1772497104.0619152,223424.65625,234358.59375,232037.578125,539125.5625,554483.5,235711.765625,707372.75,209763.625,0.0
1772497104.0619256,223458.09375,234389.96875,232054.03125,539102.5625,554341.375,235719.546875,707375.6875,209781.5,0.0
1772497104.0675817,223450.671875,234390.953125,232056.984375,539059.0,554192.1875,235726.0625,707377.125,209800.1875,0.0
1772497104.0726001,223396.84375,234383.4375,232042.765625,538954.75,553980.0625,235718.640625,707374.25,209798.765625,0.0
1772497104.075084,223400.59375,234358.953125,232031.5,538889.4375,553781.75,235712.296875,707377.375,209792.859375,0.0
1772497104.0819356,223423.75,234343.484375,232023.71875,538845.75,553616.375,235706.390625,707380.5625,209789.375,0.0
1772497104.081947,223413.5625,234365.109375,232040.4375,538796.6875,553450.5625,235717.9375,707383.5,209806.265625,0.0
1772497104.0876,223355.1875,234384.6875,232049.203125,538692.6875,553226.0625,235722.40625,707381.0,209811.0,0.0
1772497104.0901108,223338.375,234391.578125,232052.78125,538607.0,552996.875,235730.09375,707382.0625,209810.828125,0.0
1772497104.0926735,223361.0,234395.78125,232052.0625,538562.5625,552802.375,235738.5,707385.1875,209812.96875,0.0
1772497104.1014163,223335.421875,234397.390625,232049.5625,538503.4375,552600.75,235737.515625,707384.9375,209816.1875,0.0
1772497104.1044288,223273.015625,234362.25,232034.546875,538406.0625,552367.6875,235728.921875,707385.875,209809.21875,0.0
1772497104.1044462,223233.859375,234379.15625,232045.359375,538306.75,552104.75,235735.90625,707389.75,209807.15625,0.0
1772497104.115111,223255.046875,234403.296875,232061.28125,538258.0,551878.1875,235747.171875,707391.875,209820.578125,0.0
1772497104.120372,223230.90625,234405.703125,232060.921875,538196.3125,551653.875,235747.96875,707390.875,209825.3125,0.0
1772497104.120398,223169.125,234419.203125,232061.8125,538105.9375,551403.375,235752.265625,707389.9375,209826.921875,0.0
1772497104.125122,223109.40625,234412.046875,232054.5625,537994.6875,551122.1875,235753.515625,707391.25,209832.734375,0.0
1772497104.1275804,223128.984375,234423.59375,232063.59375,537947.0,550879.125,235766.03125,707393.4375,209849.0,0.0
1772497104.1301029,223110.203125,234437.71875,232061.28125,537889.5,550637.0625,235772.109375,707392.25,209861.078125,0.0
1772497104.133826,223049.3125,234451.390625,232054.65625,537799.0625,550373.1875,235773.625,707389.125,209854.640625,0.0
1772497104.1482825,222982.171875,234438.703125,232042.328125,537681.3125,550069.5625,235774.078125,707388.3125,209854.8125,0.0
1772497104.1483111,222991.65625,234450.046875,232048.671875,537618.25,549803.5,235785.609375,707392.125,209869.75,0.0
1772497104.1500845,222995.671875,234485.09375,232069.859375,537575.375,549560.5,235799.921875,707395.3125,209885.390625,0.0
1772497104.152625,222962.140625,234486.0,232071.828125,537516.75,549313.625,235802.875,707397.1875,209891.5625,0.0
1772497104.1551008,222876.046875,234492.078125,232060.921875,537383.875,548988.3125,235787.140625,707392.5,209879.21875,0.0
1772497104.1575773,222872.734375,234484.734375,232061.984375,537312.5625,548708.8125,235795.71875,707398.0625,209885.65625,0.0
1772497104.1670375,222873.015625,234492.4375,232059.3125,537264.375,548455.125,235808.953125,707398.875,209897.90625,0.0
1772497104.1670597,222839.21875,234485.09375,232052.953125,537207.5,548197.1875,235807.34375,707400.9375,209906.40625,0.0
1772497104.1688387,222772.609375,234492.703125,232058.59375,537107.625,547889.8125,235806.53125,707403.125,209917.671875,0.0
1772497104.1713636,222759.828125,234518.09375,232072.1875,537036.375,547586.8125,235821.015625,707404.5,209936.171875,0.0
1772497104.187698,222765.625,234495.015625,232058.140625,536990.75,547319.9375,235818.515625,707405.3125,209930.8125,0.0
1772497104.2132733,222725.484375,234492.25,232055.90625,536931.125,547050.3125,235819.3125,707404.875,209926.609375,0.0
1772497104.2133012,222663.703125,234491.0,232057.4375,536843.3125,546753.8125,235827.8125,707405.5625,209942.703125,0.0
1772497104.2151213,222633.484375,234501.546875,232061.09375,536753.5625,546438.125,235834.875,707404.875,209949.59375,0.0
1772497104.2262208,222660.578125,234529.53125,232072.1875,536720.6875,546171.25,235853.5625,707408.25,209966.578125,0.0
1772497104.2338662,222638.671875,234528.90625,232058.234375,536666.375,545906.875,235848.5625,707409.75,209957.90625,0.0
1772497104.2363503,222575.015625,234528.46875,232051.359375,536575.9375,545606.8125,235846.046875,707409.25,209955.21875,0.0
1772497104.238842,222530.484375,234519.609375,232047.234375,536480.9375,545280.9375,235846.234375,707409.875,209955.671875,0.0
1772497104.241349,222556.515625,234519.96875,232051.703125,536438.875,545005.75,235853.65625,707413.4375,209961.5625,0.0
1772497104.243848,222532.375,234518.09375,232042.328125,536376.875,544726.1875,235845.25,707411.5625,209958.53125,0.0
1772497104.2463417,222488.46875,234534.265625,232048.9375,536309.75,544439.8125,235850.703125,707411.625,209978.640625,0.0
1772497104.2488413,222433.9375,234542.59375,232046.609375,536212.1875,544105.9375,235852.484375,707410.375,209979.890625,0.0
1772497104.251354,222451.015625,234551.4375,232040.0,536166.1875,543818.6875,235855.796875,707409.75,209971.5,0.0
1772497104.2538383,222433.9375,234551.4375,232030.703125,536119.6875,543537.6875,235848.109375,707409.125,209966.578125,0.0
1772497104.2563317,222401.390625,234547.765625,232033.109375,536067.1875,543255.75,235848.203125,707411.125,209972.203125,0.0
1772497104.2588365,222347.65625,234543.03125,232034.71875,535977.4375,542931.5625,235851.234375,707411.4375,209972.828125,0.0
1772497104.2613547,222361.78125,234552.0625,232037.671875,535934.625,542638.3125,235857.234375,707412.0625,209976.234375,0.0
1772497104.266332,222377.78125,234558.234375,232038.484375,535911.375,542383.6875,235860.171875,707417.0,209974.984375,0.0
1772497104.2733428,222357.125,234562.890625,232041.15625,535866.75,542122.25,235858.484375,707416.8125,209986.875,0.0
1772497104.2733696,222300.359375,234554.5625,232038.296875,535773.1875,541812.1875,235857.9375,707417.4375,209994.46875,0.0
1772497104.275104,222314.125,234558.0625,232040.890625,535722.4375,541533.25,235863.390625,707418.375,210001.0,0.0
1772497104.2782335,222340.5,234558.0625,232036.328125,535699.4375,541293.1875,235867.15625,707418.8125,210007.96875,0.0
1772497104.2782476,222334.59375,234562.4375,232037.765625,535663.9375,541057.1875,235874.3125,707420.4375,210015.296875,0.0
1772497104.280661,222297.40625,234550.546875,232036.953125,535590.5,540790.1875,235875.109375,707424.3125,210025.21875,0.0
1772497104.2806718,222305.546875,234552.0625,232034.71875,535536.4375,540524.75,235877.796875,707426.75,210031.21875,0.0
1772497104.286338,222351.59375,234558.59375,232031.953125,535526.4375,540311.5,235884.140625,707431.75,210033.09375,0.0
1772497104.288843,222360.890625,234556.890625,232028.375,535507.5,540110.625,235891.109375,707435.6875,210037.390625,0.0
1772497104.2919908,222344.34375,234572.71875,232040.4375,535460.1875,539884.75,235901.21875,707440.4375,210052.40625,0.0
1772497104.2920039,222350.6875,234572.09375,232040.53125,535407.875,539642.3125,235909.078125,707443.625,210057.328125,0.0
1772497104.293831,222390.75,234561.625,232030.703125,535385.625,539429.875,235894.328125,707443.125,210045.96875,0.0
1772497104.2975905,222404.34375,234576.828125,232032.125,535366.25,539236.375,235892.640625,707444.375,210039.53125,0.0
1772497104.3069415,222377.421875,234579.421875,232031.59375,535310.375,539008.875,235888.96875,707442.5625,210036.84375,0.0
1772497104.3069608,222357.9375,234540.265625,232020.15625,535240.375,538757.625,235880.46875,707442.375,210029.15625,0.0
1772497104.313269,222390.5625,234533.640625,232010.9375,535204.5,538540.8125,235870.015625,707437.6875,210010.75,0.0
1772497104.313294,222413.015625,234536.0625,232010.9375,535185.375,538361.5625,235868.5,707438.625,210010.828125,0.0
1772497104.3150878,222404.15625,234538.125,232011.125,535142.75,538168.6875,235865.09375,707439.375,210011.546875,0.0
1772497104.3213613,222384.84375,234543.484375,232015.953125,535076.1875,537940.4375,235863.578125,707439.75,210015.578125,0.0
1772497104.325113,222434.828125,234544.28125,232015.765625,535060.625,537748.375,235862.59375,707440.8125,210010.828125,0.0
1772497104.3294325,222464.0625,234545.0,232006.296875,535045.0,537582.8125,235859.828125,707445.625,209995.0,0.0
1772497104.3294501,222473.8125,234557.703125,232014.96875,535022.5625,537415.0,235871.4375,707448.9375,210007.96875,0.0
1772497104.3388684,222441.4375,234543.390625,232006.296875,534947.25,537189.0,235866.703125,707449.4375,210011.71875,0.0
1772497104.3413367,222478.71875,234540.359375,232002.890625,534917.125,536990.125,235861.703125,707451.1875,210015.125,0.0
1772497104.3452227,222523.078125,234549.734375,232007.359375,534911.625,536830.875,235868.9375,707455.0,210029.25,0.0
1772497104.349426,222522.4375,234557.078125,232004.6875,534874.6875,536657.1875,235870.90625,707454.9375,210036.484375,0.0
1772497104.3494384,222475.234375,234520.421875,231979.734375,534788.25,536428.375,235853.921875,707452.75,210025.765625,0.0
1772497104.3576076,222506.796875,234516.578125,231977.234375,534757.3125,536235.25,235860.0,707456.625,210039.703125,0.0
1772497104.3638475,222560.4375,234547.5,231991.265625,534755.4375,536083.1875,235875.640625,707463.3125,210054.375,0.0
1772497104.3669248,222564.90625,234542.59375,231982.59375,534722.0625,535918.875,235873.859375,707463.875,210046.859375,0.0
1772497104.366936,222529.421875,234537.21875,231970.796875,534639.4375,535698.3125,235864.375,707459.5625,210042.578125,0.0
1772497104.3688836,222546.859375,234542.40625,231974.546875,534590.625,535495.4375,235868.40625,707460.8125,210053.5625,0.0
1772497104.379078,222589.859375,234534.453125,231960.96875,534572.0625,535332.6875,235872.515625,707462.8125,210045.4375,0.0
1772497104.385709,222601.390625,234538.296875,231957.296875,534549.5625,535180.6875,235881.90625,707466.875,210047.84375,0.0
1772497104.385726,222574.296875,234543.03125,231951.578125,534479.9375,534984.5,235880.296875,707469.3125,210048.296875,0.0
1772497104.3919206,222567.0625,234555.28125,231950.953125,534405.75,534763.125,235882.703125,707467.375,210054.8125,0.0
1772497104.391932,222605.765625,234549.65625,231945.046875,534378.3125,534587.875,235884.9375,707466.375,210060.71875,0.0
1772497104.3976133,222607.375,234537.671875,231938.078125,534338.9375,534424.0625,235878.5,707467.375,210063.140625,0.0
1772497104.4119596,222585.75,234542.234375,231942.984375,534277.5,534243.4375,235879.765625,707472.375,210067.25,0.0
1772497104.411986,222563.296875,234531.40625,231939.40625,534189.625,534015.5,235869.75,707471.625,210059.921875,0.0
1772497104.4282713,222607.5625,234546.078125,231944.59375,534157.625,533830.125,235874.75,707471.4375,210058.3125,0.0
1772497104.4282973,222626.25,234558.40625,231947.734375,534126.625,533664.5625,235882.53125,707475.0625,210064.125,0.0
1772497104.4300911,222616.5,234566.28125,231949.703125,534075.375,533488.125,235894.421875,707479.9375,210072.25,0.0
1772497104.432587,222567.421875,234558.6875,231931.71875,533969.0,533241.9375,235880.109375,707476.125,210061.890625,0.0
1772497104.4349499,222585.75,234539.8125,231918.9375,533919.625,533030.75,235864.203125,707473.8125,210050.625,0.0
1772497104.438994,222604.96875,234538.75,231925.828125,533896.625,532864.625,235873.765625,707478.8125,210062.234375,0.0
1772497104.4438806,222591.640625,234536.953125,231928.15625,533851.4375,532688.75,235878.59375,707483.1875,210072.515625,0.0
1772497104.455186,222544.078125,234530.703125,231925.5625,533757.8125,532455.0625,235882.796875,707482.5625,210071.0,0.0
1772497104.4606934,222562.328125,234551.078125,231932.53125,533704.9375,532240.5625,235892.71875,707483.25,210077.625,0.0
1772497104.4607246,222582.96875,234568.0625,231943.4375,533674.125,532062.5,235906.046875,707486.75,210094.34375,0.0
1772497104.4632404,222570.71875,234587.734375,231958.640625,533631.1875,531875.6875,235919.359375,707488.0,210113.03125,0.0
1772497104.4632518,222516.0,234580.140625,231950.140625,533531.625,531628.0625,235915.15625,707488.0,210100.6875,0.0
1772497104.4688656,222521.375,234584.609375,231946.203125,533465.4375,531400.9375,235915.15625,707489.1875,210101.484375,0.0
1772497104.4719236,222525.75,234576.734375,231937.265625,533415.1875,531189.5,235902.828125,707487.625,210088.171875,0.0
1772497104.4719348,222498.484375,234570.296875,231932.625,533355.5,530979.5,235895.9375,707487.125,210083.4375,0.0
1772497104.473837,222442.421875,234584.96875,231937.71875,533256.875,530730.6875,235901.3125,707488.625,210091.5625,0.0
1772497104.4763336,222430.359375,234597.9375,231946.65625,533181.9375,530480.5625,235916.234375,707490.4375,210111.234375,0.0
1772497104.4807012,222432.59375,234576.109375,231923.59375,533123.375,530250.8125,235895.046875,707488.0625,210085.9375,0.0
1772497104.4807198,222411.046875,234570.484375,231913.484375,533066.3125,530036.4375,235885.5625,707487.9375,210074.84375,0.0
1772497104.4944324,222345.859375,234565.125,231903.921875,532969.3125,529774.8125,235873.59375,707486.125,210077.796875,0.0
1772497104.4944496,222306.703125,234566.734375,231899.359375,532876.5,529491.1875,235867.328125,707485.0625,210079.859375,0.0
1772497104.4994266,222325.921875,234582.375,231908.921875,532831.9375,529249.8125,235876.71875,707484.9375,210074.671875,0.0
1772497104.4994392,222308.9375,234570.21875,231908.84375,532778.6875,529023.6875,235880.921875,707486.3125,210067.421875,0.0
1772497104.501927,222246.625,234567.359375,231902.3125,532679.4375,528752.375,235871.890625,707482.4375,210062.0625,0.0
1772497104.5019553,222191.375,234563.859375,231897.578125,532571.375,528450.3125,235870.015625,707480.3125,210060.625,0.0
1772497104.5075903,222218.734375,234575.3125,231908.65625,532536.0625,528210.4375,235886.375,707484.3125,210069.75,0.0
1772497104.521983,222195.9375,234561.71875,231902.578125,532486.5,527963.8125,235881.015625,707483.5,210062.0625,0.0
1772497104.5220137,222142.203125,234549.03125,231892.75,532413.75,527696.8125,235873.671875,707481.125,210051.421875,0.0
1772497104.5269568,222075.5,234555.46875,231882.640625,532300.5,527379.5,235873.59375,707477.25,210050.796875,0.0
1772497104.5269728,222083.640625,234541.25,231863.15625,532249.6875,527111.5,235867.78125,707476.125,210048.46875,0.0
1772497104.5294244,222074.78125,234517.46875,231846.96875,532210.375,526873.625,235859.90625,707477.6875,210047.9375,0.0
1772497104.529438,222037.234375,234526.9375,231853.046875,532158.25,526629.75,235866.4375,707479.6875,210054.375,0.0
1772497104.5426085,221969.46875,234528.109375,231856.71875,532063.5625,526334.1875,235867.0625,707478.0,210059.734375,0.0
1772497104.5456886,221973.484375,234529.4375,231849.828125,532008.5625,526065.875,235869.296875,707478.625,210064.5625,0.0
1772497104.5457032,221970.984375,234528.734375,231830.34375,531957.3125,525811.5625,235863.9375,707475.8125,210064.203125,0.0
1772497104.5475888,221942.640625,234522.828125,231816.65625,531904.0625,525565.875,235858.84375,707475.5625,210053.125,0.0
1772497104.5513444,221883.09375,234522.921875,231816.5625,531810.3125,525282.375,235862.59375,707476.1875,210056.15625,0.0
1772497104.5551376,221878.71875,234531.328125,231817.015625,531747.9375,525013.1875,235866.890625,707477.375,210057.40625,0.0
1772497104.5714417,221899.015625,234541.25,231820.5,531726.125,524782.6875,235870.734375,707479.875,210064.921875,0.0
1772497104.574432,221882.65625,234540.625,231813.34375,531681.0,524548.6875,235866.890625,707479.75,210057.59375,0.0
1772497104.574448,221822.5625,234526.40625,231797.703125,531588.875,524269.03125,235849.453125,707479.0625,210044.09375,0.0
1772497104.5763435,221818.8125,234538.125,231808.34375,531530.5625,524000.1875,235855.890625,707481.5625,210054.90625,0.0
1772497104.5788472,221844.109375,234532.390625,231802.890625,531498.875,523768.53125,235854.8125,707481.8125,210057.859375,0.0
1772497104.5813537,221833.390625,234522.03125,231796.28125,531457.125,523545.21875,235852.578125,707483.375,210057.765625,0.0
1772497104.590165,221777.78125,234516.125,231787.515625,531367.0,523280.90625,235844.359375,707482.625,210050.96875,0.0
1772497104.5932472,221758.28125,234521.484375,231793.0625,531292.25,523004.125,235848.375,707482.375,210057.5,0.0
1772497104.5932603,221803.171875,234527.75,231796.90625,531275.9375,522779.96875,235864.203125,707486.1875,210068.40625,0.0
1772497104.5950966,221795.484375,234508.4375,231779.203125,531233.3125,522546.15625,235849.890625,707489.1875,210060.09375,0.0
1772497104.6089067,221758.28125,234501.546875,231771.421875,531165.625,522292.53125,235842.296875,707487.4375,210053.84375,0.0
1772497104.6119452,221731.375,234525.328125,231785.453125,531097.5,522017.875,235857.9375,707488.6875,210073.6875,0.0
1772497104.6119657,221760.703125,234515.5,231772.9375,531070.9375,521782.53125,235850.703125,707489.625,210068.40625,0.0
1772497104.613847,221776.34375,234498.515625,231766.046875,531050.3125,521579.40625,235854.1875,707494.25,210077.53125,0.0
1772497104.6163597,221745.3125,234488.5,231755.6875,530990.9375,521353.21875,235844.71875,707493.625,210072.34375,0.0
1772497104.630772,221709.734375,234497.078125,231766.140625,530915.0,521093.03125,235846.046875,707494.6875,210085.046875,0.0
1772497104.630798,221745.9375,234499.9375,231773.46875,530889.1875,520869.53125,235851.6875,707495.0,210087.546875,0.0
1772497104.6363747,221762.671875,234488.5,231771.0625,530866.125,520667.8125,235846.5,707496.125,210083.078125,0.0
1772497104.638852,221763.5625,234496.09375,231783.3125,530837.625,520467.90625,235848.5625,707500.5,210093.53125,0.0
1772497104.65265,221730.296875,234500.75,231786.34375,530761.0625,520218.46875,235849.890625,707500.625,210102.46875,0.0
1772497104.6550922,221762.3125,234503.25,231793.0625,530730.3125,519999.78125,235854.546875,707502.3125,210114.28125,0.0
1772497104.6576064,221791.09375,234510.84375,231797.171875,530718.75,519811.375,235863.046875,707504.25,210119.28125,0.0
1772497104.6606996,221783.765625,234507.1875,231790.8125,530690.1875,519626.0625,235864.375,707504.375,210121.875,0.0
1772497104.6607125,221748.71875,234504.5,231782.140625,530613.8125,519402.625,235857.046875,707503.9375,210114.90625,0.0
1772497104.6625955,221779.921875,234529.53125,231792.078125,530573.1875,519192.0625,235869.296875,707507.875,210117.578125,0.0
1772497104.6656904,221824.4375,234536.0625,231796.09375,530560.0625,519009.9375,235879.3125,707511.4375,210115.265625,0.0
1772497104.6657045,221825.703125,234538.03125,231798.328125,530529.9375,518818.53125,235882.53125,707511.8125,210111.0625,0.0
1772497104.6675944,221787.34375,234532.484375,231786.171875,530453.5,518586.4375,235879.84375,707511.625,210102.46875,0.0
1772497104.6756873,221792.078125,234537.046875,231786.625,530398.0625,518352.90625,235879.40625,707513.75,210106.59375,0.0
1772497104.675701,221827.125,234520.140625,231774.90625,530372.875,518158.4375,235871.09375,707514.9375,210104.078125,0.0
1772497104.677596,221840.0,234524.609375,231780.984375,530353.125,517991.25,235884.046875,707518.0625,210115.703125,0.0
1772497104.6864035,221819.703125,234534.0,231789.03125,530294.6875,517793.75,235891.734375,707520.625,210125.984375,0.0
1772497104.6932657,221802.0,234533.5625,231788.765625,530222.1875,517558.25,235889.234375,707519.0,210136.0,0.0
1772497104.6932883,221840.890625,234535.4375,231784.734375,530195.8125,517367.90625,235886.546875,707518.1875,210130.71875,0.0
1772497104.6950908,221854.3125,234522.46875,231773.46875,530169.0,517196.25,235887.265625,707523.375,210118.484375,0.0
1772497104.7038565,221824.890625,234510.484375,231762.828125,530110.25,516994.0,235881.015625,707525.625,210120.4375,0.0
1772497104.7107112,221794.140625,234512.375,231756.84375,530030.25,516750.1875,235872.0625,707525.8125,210119.90625,0.0
1772497104.7107387,221844.65625,234527.203125,231761.046875,530012.0,516566.1875,235882.53125,707530.0,210115.609375,0.0
1772497104.7169416,221864.5,234536.859375,231763.8125,529985.25,516390.40625,235885.65625,707528.3125,210122.59375,0.0
1772497104.7169614,221850.1875,234536.328125,231764.71875,529940.5,516200.59375,235885.5625,707529.6875,210132.515625,0.0
1772497104.7306943,221817.921875,234532.3125,231757.109375,529866.125,515980.75,235891.734375,707532.0,210128.140625,0.0
1772497104.7307153,221844.375,234529.53125,231739.859375,529826.5625,515807.3125,235889.859375,707531.625,210127.6875,0.0
1772497104.7357163,221864.234375,234531.328125,231734.046875,529799.25,515641.09375,235886.203125,707533.0625,210129.921875,0.0
1772497104.7357423,221864.234375,234543.296875,231737.625,529765.0625,515472.65625,235889.421875,707536.5625,210135.828125,0.0
1772497104.737605,221832.671875,234548.125,231745.21875,529681.3125,515249.65625,235889.0625,707536.125,210144.671875,0.0
1772497104.7400913,221873.4375,234562.4375,231754.78125,529650.625,515062.34375,235900.140625,707540.5625,210156.46875,0.0
1772497104.7512136,221899.546875,234555.375,231749.25,529626.6875,514896.40625,235900.859375,707540.9375,210153.609375,0.0
1772497104.7619655,221870.40625,234544.5625,231731.8125,529567.3125,514706.875,235887.71875,707537.4375,210137.609375,0.0
1772497104.7619944,221831.15625,234553.9375,231736.90625,529490.3125,514490.59375,235892.359375,707538.1875,210143.25,0.0
1772497104.7638533,221852.25,234546.796875,231743.703125,529451.3125,514289.4375,235896.03125,707539.9375,210149.765625,0.0
1772497104.766932,221897.40625,234569.328125,231760.875,529448.3125,514126.625,235908.453125,707543.8125,210162.46875,0.0
1772497104.7669473,221884.890625,234565.5625,231755.59375,529417.5625,513949.40625,235908.71875,707544.25,210159.421875,0.0
1772497104.7688498,221839.46875,234547.6875,231742.1875,529343.3125,513740.3125,235906.40625,707546.8125,210158.078125,0.0
1772497104.7726066,221836.6875,234556.359375,231745.21875,529286.1875,513531.1875,235914.0,707550.375,210166.125,0.0
1772497104.7819922,221868.96875,234562.4375,231743.609375,529262.875,513357.71875,235917.84375,707551.3125,210163.453125,0.0
1772497104.7820132,221860.203125,234564.046875,231741.109375,529224.8125,513188.84375,235915.15625,707549.0625,210161.484375,0.0
1772497104.7957172,221829.625,234563.953125,231742.359375,529163.1875,513001.4375,235919.09375,707552.8125,210159.25,0.0
1772497104.7957437,221815.6875,234562.609375,231734.046875,529088.4375,512787.3125,235922.578125,707553.375,210160.046875,0.0
1772497104.798247,221847.15625,234559.125,231720.453125,529053.1875,512606.34375,235917.046875,707553.5625,210148.078125,0.0
1772497104.7982578,221835.265625,234548.578125,231710.078125,529009.9375,512422.25,235907.390625,707553.25,210142.078125,0.0
1772497104.8001103,221809.15625,234554.84375,231714.5625,528951.9375,512227.34375,235911.3125,707555.5,210152.28125,0.0
1772497104.8126452,221784.390625,234574.0625,231733.421875,528875.9375,511995.625,235923.84375,707558.875,210164.515625,0.0
1772497104.8182707,221822.125,234579.875,231740.578125,528847.5625,511803.75,235929.375,707562.375,210165.78125,0.0
1772497104.818292,221822.828125,234589.703125,231748.796875,528812.625,511618.3125,235938.671875,707565.4375,210179.09375,0.0
1772497104.820096,221784.84375,234588.71875,231746.921875,528747.5,511397.9375,235932.59375,707562.3125,210169.625,0.0
1772497104.8226025,221725.46875,234570.296875,231730.296875,528643.875,511133.1875,235918.734375,707559.0,210160.40625,0.0
1772497104.8251078,221744.609375,234578.171875,231731.453125,528595.875,510909.6875,235921.875,707559.8125,210166.484375,0.0
1772497104.8538885,221739.59375,234585.328125,231729.046875,528546.875,510697.34375,235918.921875,707561.75,210169.078125,0.0
1772497104.8569312,221698.375,234577.1875,231720.359375,528480.5625,510476.59375,235915.34375,707561.375,210156.828125,0.0
1772497104.8569453,221642.6875,234580.40625,231720.453125,528382.5625,510218.90625,235912.21875,707560.4375,210155.3125,0.0
1772497104.8639493,221647.421875,234571.203125,231722.421875,528322.9375,509972.5,235897.109375,707558.625,210153.796875,0.0
1772497104.8688705,221662.96875,234567.4375,231723.234375,528295.125,509767.6875,235897.640625,707558.625,210157.375,0.0
1772497104.871348,221655.203125,234566.90625,231725.375,528258.375,509583.3125,235910.875,707562.0,210165.6875,0.0
1772497104.8738768,221600.03125,234569.59375,231723.3125,528165.3125,509334.6875,235917.671875,707562.5,210172.484375,0.0
1772497104.876361,221597.703125,234578.34375,231726.890625,528103.625,509091.5,235927.859375,707562.5,210174.796875,0.0
1772497104.8788586,221628.734375,234582.375,231733.328125,528083.5625,508894.4375,235932.859375,707561.3125,210175.34375,0.0
1772497104.8813794,221619.34375,234591.5,231738.96875,528053.5625,508696.3125,235931.53125,707562.8125,210181.59375,0.0
1772497104.8838596,221575.453125,234603.921875,231743.4375,527988.5625,508459.5625,235931.53125,707564.1875,210194.734375,0.0
1772497104.886356,221573.84375,234597.9375,231744.15625,527937.4375,508224.34375,235942.515625,707565.875,210206.28125,0.0
1772497104.88886,221613.625,234590.328125,231732.53125,527918.375,508032.1875,235949.046875,707569.1875,210203.765625,0.0
1772497104.8913465,221604.953125,234577.90625,231719.921875,527874.1875,507835.0625,235937.6875,707567.1875,210201.453125,0.0
1772497104.8969276,221570.078125,234583.09375,231718.578125,527801.75,507619.59375,235936.890625,707567.5625,210202.4375,0.0
1772497104.8969393,221560.15625,234593.015625,231722.421875,527733.5625,507392.03125,235942.96875,707569.5625,210210.65625,0.0
1772497104.8988585,221609.78125,234594.171875,231722.6875,527716.5,507203.5,235946.09375,707572.0625,210212.0,0.0
1772497104.9019399,221626.671875,234600.875,231725.109375,527698.4375,507029.3125,235947.96875,707575.6875,210219.15625,0.0
1772497104.9019496,221610.765625,234610.890625,231734.765625,527652.8125,506834.78125,235954.0625,707578.6875,210227.46875,0.0
1772497104.9038599,221583.84375,234612.5,231733.0625,527574.9375,506604.1875,235960.40625,707580.8125,210223.796875,0.0
1772497104.9132705,221616.75,234607.5,231725.546875,527544.375,506403.1875,235960.40625,707580.625,210225.3125,0.0
1772497104.9132905,221634.28125,234606.953125,231726.890625,527523.8125,506223.0625,235967.203125,707583.0625,210230.859375,0.0
1772497104.9151027,221612.734375,234606.421875,231721.34375,527475.0625,506028.125,235967.28125,707584.5625,210224.6875,0.0
1772497104.9176195,221565.34375,234601.0625,231705.25,527380.375,505782.8125,235951.734375,707581.8125,210208.78125,0.0
1772497104.9263625,221584.203125,234593.453125,231691.578125,527334.0625,505561.09375,235941.71875,707578.125,210203.859375,0.0
1772497104.9306905,221592.96875,234572.8125,231681.5625,527306.4375,505367.96875,235934.921875,707575.5,210201.71875,0.0
1772497104.930704,221569.90625,234567.171875,231674.859375,527259.6875,505166.15625,235928.390625,707571.875,210190.546875,0.0
1772497104.9363625,221540.578125,234574.234375,231683.359375,527194.6875,504939.0625,235933.40625,707575.375,210201.53125,0.0
1772497104.9501603,221568.203125,234586.3125,231686.84375,527157.6875,504727.96875,235940.46875,707579.4375,210202.96875,0.0
1772497104.952616,221585.546875,234589.34375,231683.4375,527125.5,504533.6875,235938.234375,707576.625,210200.203125,0.0
1772497104.955695,221571.953125,234580.40625,231677.453125,527086.8125,504345.3125,235936.890625,707576.0625,210201.0,0.0
1772497104.9557114,221531.546875,234586.671875,231680.21875,527011.3125,504117.15625,235936.265625,707578.9375,210211.28125,0.0
1772497104.9576192,221546.203125,234595.25,231684.6875,526964.375,503898.5625,235945.296875,707581.875,210217.890625,0.0
1772497104.9612374,221580.28125,234601.859375,231684.421875,526948.3125,503713.84375,235953.875,707584.9375,210222.640625,0.0
1772497104.968289,221571.515625,234604.640625,231682.1875,526914.75,503527.25,235956.015625,707585.25,210228.359375,0.0
1772497104.9683068,221530.828125,234616.53125,231685.9375,526846.125,503303.03125,235965.859375,707585.625,210240.875,0.0
1772497104.9813833,221517.515625,234606.6875,231675.484375,526777.5625,503069.5625,235961.46875,707583.5,210238.375,0.0
1772497104.986964,221550.6875,234605.0,231672.71875,526752.3125,502878.15625,235955.21875,707583.125,210237.296875,0.0
1772497104.986992,221559.53125,234601.328125,231673.421875,526731.3125,502710.0625,235955.3125,707586.375,210245.25,0.0
1772497104.9888651,221526.0,234604.09375,231675.65625,526674.0,502511.40625,235957.453125,707586.1875,210250.890625,0.0
1772497104.9913616,221510.53125,234617.59375,231683.0,526605.0,502281.09375,235961.46875,707586.6875,210257.234375,0.0
1772497104.993873,221552.015625,234616.96875,231681.390625,526582.5625,502095.84375,235957.1875,707588.3125,210247.046875,0.0
1772497105.0007613,221553.90625,234608.125,231669.5,526556.0,501925.15625,235946.453125,707589.0,210232.734375,0.0
1772497105.0007849,221530.296875,234603.109375,231667.609375,526510.125,501739.75,235945.921875,707592.6875,210226.484375,0.0
1772497105.002612,221500.25,234599.359375,231662.515625,526431.6875,501508.4375,235941.890625,707592.25,210217.359375,0.0
1772497105.0113657,221542.09375,234603.46875,231663.859375,526407.375,501320.9375,235946.1875,707592.25,210217.546875,0.0
1772497105.018266,221557.296875,234603.390625,231661.453125,526385.0625,501155.1875,235947.796875,707594.375,210204.21875,0.0
1772497105.0182853,221542.71875,234610.890625,231666.09375,526347.1875,500981.84375,235956.5625,707598.0,210216.640625,0.0
1772497105.0201037,221500.171875,234603.5625,231656.4375,526260.6875,500748.9375,235947.4375,707594.5,210212.4375,0.0
1772497105.0345013,221542.984375,234609.640625,231663.234375,526239.9375,500568.25,235961.03125,707600.125,210221.828125,0.0
1772497105.034596,221560.34375,234603.390625,231657.15625,526218.0,500396.9375,235955.671875,707601.5625,210213.421875,0.0
1772497105.043263,221543.890625,234608.296875,231661.625,526181.1875,500213.8125,235954.5,707598.5,210216.734375,0.0
1772497105.043281,221501.234375,234606.25,231657.0625,526099.375,499985.03125,235952.453125,707596.875,210218.4375,0.0
1772497105.0456815,221530.390625,234607.3125,231658.5,526064.875,499785.21875,235957.90625,707599.25,210223.4375,0.0
1772497105.0456917,221562.296875,234610.265625,231661.359375,526049.5625,499619.09375,235962.109375,707601.125,210238.734375,0.0
1772497105.0476177,221552.203125,234609.640625,231657.6875,526010.3125,499451.90625,235962.546875,707602.6875,210233.90625,0.0
1772497105.0513625,221513.9375,234612.6875,231660.375,525934.1875,499245.5625,235966.84375,707605.6875,210242.578125,0.0
1772497105.0707593,221522.421875,234618.5,231662.34375,525882.8125,499038.84375,235970.0625,707605.125,210253.21875,0.0
1772497105.0707836,221567.578125,234623.5,231662.703125,525872.125,498885.25,235976.140625,707607.875,210258.578125,0.0
1772497105.0732584,221574.109375,234627.796875,231659.296875,525847.4375,498733.96875,235981.140625,707609.5625,210261.890625,0.0
1772497105.073274,221534.5,234619.03125,231647.328125,525771.25,498535.5625,235973.71875,707609.875,210258.671875,0.0
1772497105.0756865,221534.765625,234627.96875,231652.5,525708.75,498333.40625,235983.5625,707612.75,210267.703125,0.0
1772497105.0757,221578.390625,234628.78125,231649.015625,525687.5,498171.59375,235984.8125,707616.5,210267.703125,0.0
1772497105.093915,221582.15625,234629.21875,231643.296875,525659.25,498018.15625,235983.296875,707617.9375,210270.109375,0.0
1772497105.0981894,221546.75,234631.28125,231647.140625,525596.9375,497835.78125,235980.609375,707619.6875,210269.125,0.0
1772497105.0982065,221527.34375,234639.328125,231658.671875,525525.5625,497628.25,235986.0625,707620.875,210276.453125,0.0
1772497105.0982144,221572.5,234635.03125,231657.609375,525498.5,497466.71875,235981.953125,707619.6875,210267.515625,0.0
1772497105.098221,221583.140625,234630.109375,231655.546875,525468.375,497314.09375,235979.890625,707620.3125,210261.796875,0.0
1772497105.100115,221553.984375,234623.6875,231651.171875,525409.0625,497135.71875,235978.109375,707620.125,210250.265625,0.0
1772497105.1026204,221520.375,234625.015625,231650.71875,525329.3125,496917.03125,235977.5625,707619.625,210250.625,0.0
1772497105.1164317,221559.078125,234624.84375,231651.796875,525304.375,496740.375,235977.921875,707623.25,210247.578125,0.0
1772497105.119458,221567.84375,234611.96875,231645.265625,525275.5625,496575.84375,235973.28125,707625.25,210241.765625,0.0
1772497105.1194763,221541.65625,234605.34375,231637.9375,525218.4375,496395.6875,235962.015625,707622.125,210233.90625,0.0
1772497105.1213462,221504.09375,234612.140625,231644.109375,525131.9375,496176.84375,235960.9375,707623.875,210242.84375,0.0
1772497105.1240644,221537.984375,234616.265625,231643.03125,525094.25,495992.375,235960.765625,707625.5,210239.984375,0.0
1772497105.1351721,221562.125,234618.859375,231637.125,525070.6875,495837.1875,235961.03125,707627.3125,210238.375,0.0
1772497105.138264,221540.046875,234614.828125,231629.96875,525024.875,495668.5625,235957.28125,707627.5,210236.671875,0.0
1772497105.1382809,221494.796875,234621.265625,231629.265625,524944.6875,495454.15625,235960.140625,707627.5625,210244.8125,0.0
1772497105.140106,221518.578125,234627.53125,231627.390625,524899.8125,495260.21875,235968.984375,707629.6875,210261.171875,0.0
1772497105.143866,221543.53125,234625.203125,231623.265625,524869.5625,495091.34375,235974.796875,707632.3125,210271.1875,0.0
1772497105.1583433,221528.421875,234624.578125,231616.828125,524829.875,494923.875,235976.59375,707633.125,210272.96875,0.0
1772497105.158371,221481.03125,234628.421875,231616.03125,524750.125,494715.5625,235980.34375,707633.125,210283.703125,0.0
1772497105.160112,221484.4375,234634.5,231618.171875,524690.625,494508.9375,235985.890625,707633.125,210290.59375,0.0
1772497105.1626132,221517.78125,234630.109375,231613.96875,524666.625,494346.40625,235987.21875,707635.3125,210294.96875,0.0
1772497105.1675196,221515.984375,234629.484375,231606.46875,524628.375,494185.90625,235981.59375,707636.75,210300.15625,0.0
1772497105.1751156,221474.328125,234631.28125,231603.6875,524550.25,493983.40625,235978.90625,707635.3125,210299.703125,0.0
1772497105.1782744,221470.125,234645.3125,231614.234375,524492.75,493778.9375,235988.921875,707636.5,210305.15625,0.0
1772497105.1782916,221518.40625,234655.15625,231619.78125,524485.5625,493621.5,235997.859375,707639.0,210310.703125,0.0
1772497105.180102,221521.984375,234642.90625,231612.453125,524458.6875,493464.21875,235995.453125,707640.4375,210302.390625,0.0
1772497105.1839917,221496.5,234639.5,231610.21875,524403.0625,493282.46875,235997.15625,707640.6875,210301.140625,0.0
1772497105.1926136,221485.0625,234641.734375,231610.671875,524335.1875,493074.59375,235998.21875,707640.4375,210300.421875,0.0
1772497105.195686,221530.5625,234634.9375,231605.203125,524320.125,492915.09375,235992.046875,707643.5,210294.078125,0.0
1772497105.1957004,221539.859375,234628.6875,231596.625,524292.4375,492759.6875,235984.640625,707644.375,210285.578125,0.0
1772497105.2013872,221520.109375,234629.21875,231592.25,524241.59375,492591.0,235986.25,707645.0625,210273.859375,0.0
1772497105.213296,221500.34375,234642.015625,231597.796875,524168.90625,492390.4375,235995.8125,707646.25,210282.1875,0.0
1772497105.2133243,221533.421875,234641.46875,231576.328125,524140.03125,492216.09375,235994.375,707647.75,210281.46875,0.0
1772497105.215688,221553.90625,234638.875,231552.1875,524123.03125,492071.53125,235994.5625,707651.1875,210276.640625,0.0
1772497105.215701,221535.84375,234637.265625,231542.09375,524075.84375,491905.9375,235994.109375,707650.375,210272.078125,0.0
1772497105.217615,221489.890625,234637.8125,231532.34375,523984.46875,491685.03125,235985.96875,707646.4375,210263.3125,0.0
1772497105.2263963,221529.21875,234648.796875,231536.71875,523954.0625,491512.90625,235990.71875,707650.0,210260.90625,0.0
1772497105.2307703,221552.828125,234645.140625,231537.0,523931.96875,491362.625,235987.5,707650.5625,210258.671875,0.0
1772497105.230795,221549.15625,234643.4375,231540.390625,523899.875,491210.4375,235985.078125,707649.9375,210259.46875,0.0
1772497105.2326207,221526.890625,234649.96875,231544.5,523832.28125,491021.28125,235989.90625,707650.125,210262.0625,0.0
1772497105.2463803,221558.015625,234655.15625,231542.625,523800.09375,490851.84375,235996.34375,707651.0,210270.375,0.0
1772497105.251358,221597.796875,234650.765625,231535.296875,523790.28125,490720.40625,235996.34375,707654.8125,210265.1875,0.0
1772497105.253874,221596.8125,234647.90625,231534.671875,523758.15625,490578.625,235995.1875,707653.375,210270.109375,0.0
1772497105.2563648,221570.265625,234655.421875,231542.53125,523690.3125,490394.34375,235999.5625,707653.125,210290.3125,0.0
1772497105.258851,221582.0625,234661.859375,231545.3125,523639.625,490208.75,236004.84375,707654.625,210298.71875,0.0
1772497105.261348,221620.5,234650.234375,231536.1875,523623.25,490066.59375,236002.421875,707655.4375,210288.4375,0.0
1772497105.275833,221621.578125,234643.96875,231538.421875,523598.3125,489938.0,235998.046875,707657.5,210286.5625,0.0
1772497105.2758553,221595.828125,234646.65625,231549.6875,523541.53125,489780.5625,236003.3125,707659.1875,210288.265625,0.0
1772497105.278258,221597.984375,234649.96875,231557.203125,523488.6875,489607.28125,236008.859375,707659.8125,210286.203125,0.0
1772497105.2782693,221653.234375,234650.234375,231561.3125,523480.03125,489480.53125,236012.890625,707662.1875,210286.03125,0.0
1772497105.280105,221674.59375,234653.0,231565.15625,523465.71875,489368.3125,236015.484375,707664.75,210284.234375,0.0
1772497105.2894456,221649.46875,234652.015625,231561.3125,523408.5,489212.28125,236010.5625,707664.6875,210271.71875,0.0
1772497105.2894588,221632.125,234651.75,231554.875,523341.71875,489025.4375,236009.046875,707665.125,210264.75,0.0
1772497105.2951148,221678.4375,234651.75,231551.921875,523328.03125,488884.71875,236011.90625,707668.0,210250.890625,0.0
1772497105.2976112,221702.671875,234647.28125,231550.765625,523314.1875,488766.875,236008.5,707670.5625,210245.96875,0.0
1772497105.3039987,221692.5625,234646.390625,231550.84375,523271.25,488633.21875,236002.25,707670.9375,210240.703125,0.0
1772497105.306354,221666.015625,234651.75,231552.546875,523200.09375,488458.875,235996.96875,707670.9375,210236.40625,0.0
1772497105.3088603,221719.125,234662.390625,231553.796875,523184.28125,488336.71875,236003.140625,707674.6875,210239.71875,0.0
1772497105.312618,221737.625,234662.921875,231546.65625,523155.375,488217.28125,235996.53125,707673.9375,210237.203125,0.0
1772497105.3219633,221726.1875,234661.859375,231545.578125,523117.21875,488088.90625,235992.5,707672.0,210239.53125,0.0
1772497105.321982,221694.984375,234664.359375,231544.6875,523045.875,487917.9375,235992.671875,707671.9375,210245.609375,0.0
1772497105.3238919,221728.6875,234667.3125,231538.609375,523010.375,487764.8125,235989.734375,707672.25,210242.3125,0.0
1772497105.3351924,221764.28125,234673.125,231535.828125,522993.84375,487641.9375,235996.796875,707674.125,210248.75,0.0
1772497105.3382597,221767.140625,234669.1875,231527.78125,522960.9375,487516.34375,235997.6875,707675.5625,210249.734375,0.0
1772497105.3382742,221721.359375,234664.359375,231516.34375,522873.3125,487332.15625,235988.828125,707674.875,210250.4375,0.0
1772497105.34014,221745.40625,234670.890625,231517.234375,522830.21875,487177.65625,235999.203125,707677.375,210255.890625,0.0
1772497105.346476,221785.546875,234668.65625,231518.484375,522817.15625,487065.1875,236007.703125,707678.0625,210269.75,0.0
1772497105.3488631,221782.515625,234670.4375,231515.171875,522786.59375,486951.375,236010.734375,707680.375,210277.0,0.0
1772497105.3607328,221740.9375,234668.921875,231509.1875,522714.4375,486793.21875,236013.953125,707682.5625,210275.46875,0.0
1772497105.3607616,221748.453125,234670.4375,231508.390625,522662.9375,486629.59375,236018.25,707681.5,210278.15625,0.0
1772497105.362614,221797.359375,234672.859375,231513.65625,522656.5,486510.78125,236027.1875,707685.25,210283.703125,0.0
1772497105.3651097,221799.5,234665.25,231504.8125,522628.875,486390.15625,236031.84375,707687.375,210281.28125,0.0
1772497105.368917,221761.859375,234653.453125,231491.65625,522561.28125,486230.125,236021.828125,707685.0625,210279.140625,0.0
1772497105.380712,221754.96875,234657.390625,231492.640625,522505.65625,486065.15625,236023.96875,707688.8125,210276.546875,0.0
1772497105.3807313,221794.21875,234662.125,231493.90625,522487.34375,485940.09375,236023.796875,707689.4375,210273.953125,0.0
1772497105.3826091,221802.453125,234666.59375,231496.671875,522467.84375,485825.375,236025.046875,707688.6875,210275.75,0.0
1772497105.3908045,221780.09375,234662.578125,231493.625,522421.625,485691.8125,236024.953125,707691.375,210274.140625,0.0
1772497105.3908303,221764.0,234667.75,231497.03125,522357.25,485527.9375,236027.1875,707691.6875,210276.546875,0.0
1772497105.3926172,221807.1875,234667.3125,231486.921875,522336.5,485401.59375,236022.359375,707691.75,210261.796875,0.0
1772497105.3951292,221814.078125,234661.5,231474.40625,522308.15625,485284.03125,236012.078125,707693.4375,210254.5625,0.0
1772497105.397617,221797.71875,234664.625,231474.765625,522259.25,485154.125,236010.828125,707693.75,210250.703125,0.0
1772497105.4063675,221779.109375,234675.265625,231488.4375,522191.21875,484992.8125,236018.703125,707696.125,210256.796875,0.0
1772497105.40945,221816.21875,234668.296875,231483.078125,522158.84375,484855.0625,236006.625,707695.6875,210247.84375,0.0
1772497105.4094636,221830.609375,234656.3125,231469.140625,522130.96875,484735.6875,235991.0625,707695.25,210235.421875,0.0
1772497105.4176433,221828.203125,234664.0,231471.375,522096.4375,484621.78125,235994.28125,707699.0,210242.9375,0.0
1772497105.4269724,221793.234375,234666.5,231473.6875,522015.1875,484453.78125,235996.25,707699.0625,210243.375,0.0
1772497105.4269984,221826.59375,234671.25,231480.578125,521983.09375,484317.625,236001.4375,707700.4375,210242.671875,0.0
1772497105.4288573,221861.28125,234668.828125,231477.09375,521964.3125,484207.28125,236004.296875,707703.5,210241.5,0.0
1772497105.4326189,221847.328125,234666.5,231469.40625,521923.8125,484085.6875,236004.84375,707703.75,210244.09375,0.0
1772497105.4419968,221804.328125,234671.78125,231468.859375,521846.03125,483913.9375,236007.96875,707704.375,210252.953125,0.0
1772497105.442022,221823.015625,234673.921875,231466.546875,521805.0,483763.375,236017.09375,707704.875,210257.59375,0.0
1772497105.4444592,221851.984375,234671.328125,231462.515625,521785.125,483642.25,236025.40625,707706.875,210269.484375,0.0
1772497105.4444783,221836.609375,234662.75,231451.25,521743.84375,483510.28125,236019.953125,707705.6875,210267.703125,0.0
1772497105.4526448,221796.453125,234661.765625,231449.734375,521672.21875,483349.4375,236023.796875,707704.625,210276.375,0.0
1772497105.4563768,221797.171875,234660.15625,231446.515625,521618.9375,483189.9375,236025.765625,707706.25,210284.234375,0.0
1772497105.4601068,221841.609375,234664.53125,231444.8125,521610.0,483078.25,236030.234375,707709.3125,210295.328125,0.0
1772497105.4945357,221850.8125,234668.734375,231445.265625,521585.9375,482967.03125,236032.90625,707710.6875,210304.0,0.0
1772497105.494564,221816.578125,234673.921875,231449.734375,521521.46875,482817.0,236032.015625,707710.6875,210302.828125,0.0
1772497105.4963565,221800.03125,234676.4375,231454.296875,521452.90625,482645.0,236030.234375,707709.9375,210296.671875,0.0
1772497105.4994564,221840.984375,234674.90625,231450.0,521431.0,482520.90625,236031.125,707709.4375,210288.078125,0.0
1772497105.4994662,221849.390625,234673.484375,231445.265625,521405.34375,482406.71875,236026.390625,707710.625,210292.203125,0.0
1772497105.5019512,221829.546875,234677.328125,231447.40625,521358.125,482276.8125,236026.75,707712.6875,210291.5625,0.0
1772497105.5019605,221811.296875,234691.359375,231452.953125,521290.09375,482112.75,236032.015625,707713.5,210291.75,0.0
1772497105.5038588,221852.515625,234692.515625,231448.84375,521265.59375,481982.03125,236031.390625,707713.5625,210277.265625,0.0
1772497105.5063615,221875.859375,234699.671875,231454.828125,521253.6875,481880.03125,236038.359375,707718.75,210281.828125,0.0
1772497105.5113745,221864.140625,234701.46875,231455.453125,521215.53125,481764.4375,236038.640625,707721.875,210276.8125,0.0
1772497105.5164196,221829.1875,234698.78125,231453.125,521135.40625,481595.90625,236033.453125,707720.125,210265.90625,0.0
1772497105.5188675,221865.125,234704.6875,231454.03125,521107.15625,481467.25,236033.890625,707720.875,210261.890625,0.0
1772497105.5219636,221892.125,234702.53125,231456.703125,521089.28125,481365.9375,236028.171875,707723.5625,210262.78125,0.0
1772497105.5219798,221887.203125,234698.609375,231453.578125,521056.84375,481260.875,236024.515625,707727.4375,210265.375,0.0
1772497105.5263748,221861.90625,234707.984375,231452.234375,520987.28125,481109.0625,236028.265625,707728.75,210278.25,0.0
1772497105.5288644,221902.671875,234712.46875,231451.4375,520964.84375,480990.15625,236034.4375,707731.625,210285.3125,0.0
1772497105.5313585,221940.9375,234713.09375,231452.328125,520960.8125,480899.25,236040.875,707734.5625,210294.703125,0.0
1772497105.5338604,221940.140625,234713.359375,231452.765625,520940.34375,480798.125,236044.625,707735.75,210304.265625,0.0
1772497105.5407016,221906.609375,234709.78125,231451.78125,520876.125,480651.3125,236049.984375,707738.8125,210306.5,0.0
1772497105.540718,221920.734375,234704.421875,231450.71875,520830.90625,480504.78125,236048.5625,707736.3125,210310.703125,0.0
1772497105.5463748,221949.53125,234690.109375,231443.03125,520811.0625,480389.4375,236042.390625,707733.125,210307.84375,0.0
1772497105.5532885,221943.265625,234679.828125,231441.6875,520781.46875,480279.8125,236038.359375,707731.0,210310.34375,0.0
1772497105.5533104,221902.671875,234676.609375,231439.453125,520715.65625,480129.71875,236034.34375,707726.4375,210314.90625,0.0
1772497105.5551088,221908.390625,234682.421875,231442.40625,520672.5625,479988.8125,236041.671875,707726.0,210319.546875,0.0
1772497105.5638788,221964.546875,234691.09375,231451.34375,520669.875,479901.71875,236048.46875,707730.375,210322.6875,0.0
1772497105.5707345,221975.71875,234691.09375,231448.390625,520651.1875,479817.40625,236044.0,707733.6875,210317.234375,0.0
1772497105.5707684,221954.078125,234704.6875,231448.65625,520600.84375,479702.96875,236049.1875,707735.1875,210322.765625,0.0
1772497105.5769684,221962.9375,234720.78125,231456.4375,520554.8125,479572.15625,236064.03125,707737.875,210332.25,0.0
1772497105.5769844,222021.859375,234730.875,231460.015625,520550.59375,479484.28125,236069.390625,707742.375,210336.0,0.0
1772497105.5788567,222028.203125,234720.78125,231445.078125,520524.84375,479392.5625,236063.21875,707741.75,210318.921875,0.0
1772497105.586396,222015.328125,234727.21875,231440.96875,520481.21875,479292.15625,236070.015625,707743.8125,210321.078125,0.0
1772497105.5983653,221993.421875,234730.15625,231436.328125,520411.65625,479151.25,236069.125,707744.5,210320.984375,0.0
1772497105.598395,222035.265625,234724.078125,231426.578125,520388.96875,479049.6875,236066.265625,707746.0,210317.140625,0.0
1772497105.6013143,222054.40625,234718.71875,231415.578125,520370.09375,478965.53125,236064.828125,707746.375,210312.578125,0.0
1772497105.601329,222041.609375,234715.671875,231409.765625,520331.28125,478869.0625,236060.453125,707748.875,210312.40625,0.0
1772497105.6013355,222007.8125,234714.15625,231407.078125,520255.5625,478722.1875,236053.75,707748.875,210311.234375,0.0
1772497105.6089928,222057.265625,234722.75,231412.71875,520238.21875,478621.9375,236058.65625,707749.6875,210316.25,0.0
1772497105.611369,222081.40625,234722.109375,231409.5,520224.375,478541.46875,236055.890625,707748.875,210315.0,0.0
1772497105.6138675,222070.578125,234720.6875,231403.0625,520190.375,478450.28125,236050.4375,707749.625,210312.046875,0.0
1772497105.622674,222039.828125,234725.609375,231403.515625,520117.4375,478312.25,236049.28125,707750.75,210310.96875,0.0
1772497105.6294649,222066.921875,234724.078125,231399.03125,520077.71875,478195.84375,236049.90625,707752.1875,210300.953125,0.0
1772497105.6294858,222099.1875,234724.265625,231399.671875,520062.96875,478115.46875,236055.53125,707753.875,210305.515625,0.0
1772497105.6357002,222099.90625,234722.5625,231398.5,520037.5,478035.875,236059.015625,707754.0,210315.171875,0.0
1772497105.6357176,222063.875,234721.046875,231393.234375,519967.75,477908.46875,236053.65625,707754.9375,210308.828125,0.0
1772497105.6495728,222089.890625,234726.9375,231396.984375,519932.96875,477797.71875,236059.5625,707756.5,210312.046875,0.0
1772497105.6496124,222136.203125,234728.015625,231398.953125,519930.03125,477726.90625,236068.140625,707759.625,210322.859375,0.0
1772497105.6557124,222140.5,234726.40625,231393.140625,519906.25,477652.15625,236071.171875,707761.375,210332.25,0.0
1772497105.655733,222109.75,234728.109375,231395.015625,519844.1875,477534.40625,236069.390625,707760.75,210336.984375,0.0
1772497105.6582723,222122.34375,234737.40625,231403.421875,519797.8125,477410.03125,236077.96875,707760.6875,210338.328125,0.0
1772497105.6582868,222174.46875,234744.109375,231403.6875,519790.03125,477330.09375,236084.234375,707762.125,210341.640625,0.0
1772497105.665131,222186.09375,234745.984375,231404.140625,519774.71875,477261.34375,236085.390625,707765.875,210345.03125,0.0
1772497105.6770134,222160.171875,234746.96875,231402.4375,519717.25,477155.59375,236083.421875,707765.6875,210344.40625,0.0
1772497105.6770372,222155.609375,234755.28125,231405.46875,519657.0625,477033.53125,236088.4375,707768.8125,210344.765625,0.0
1772497105.6832738,222219.09375,234759.84375,231404.3125,519654.75,476971.21875,236098.1875,707772.75,210354.0625,0.0
1772497105.6832895,222232.234375,234754.21875,231394.125,519634.53125,476910.625,236095.140625,707772.125,210358.0,0.0
1772497105.6851215,222213.546875,234757.609375,231390.90625,519587.59375,476821.5625,236092.375,707770.625,210358.796875,0.0
1772497105.687606,222190.203125,234760.734375,231388.671875,519522.25,476697.71875,236092.546875,707770.0625,210356.390625,0.0
1772497105.6976645,222246.359375,234764.671875,231389.03125,519510.96875,476626.75,236098.09375,707773.5625,210355.046875,0.0
1772497105.700137,222277.65625,234765.5625,231389.375,519498.375,476573.375,236096.921875,707776.8125,210358.359375,0.0
1772497105.7032847,222266.734375,234755.015625,231383.296875,519458.0625,476498.1875,236090.84375,707776.625,210354.15625,0.0
1772497105.7032995,222242.875,234757.515625,231383.125,519385.1875,476384.09375,236090.21875,707776.4375,210356.84375,0.0
1772497105.705135,222290.875,234763.25,231384.46875,519365.96875,476311.59375,236095.671875,707776.625,210362.640625,0.0
1772497105.7138975,222319.671875,234754.484375,231378.390625,519353.71875,476265.28125,236090.84375,707780.0,210349.953125,0.0
1772497105.718292,222317.34375,234755.375,231380.4375,519328.3125,476216.8125,236089.59375,707782.9375,210348.34375,0.0
1772497105.7183113,222290.875,234763.328125,231386.4375,519263.5,476123.125,236095.140625,707785.125,210360.6875,0.0
1772497105.7238808,222329.5,234766.46875,231383.75,519232.9375,476046.125,236098.625,707784.1875,210359.34375,0.0
1772497105.7276473,222363.65625,234761.359375,231375.53125,519219.4375,475994.09375,236097.640625,707784.375,210350.484375,0.0
1772497105.7313623,222369.828125,234762.265625,231376.78125,519201.53125,475948.21875,236096.21875,707787.0625,210354.953125,0.0
1772497105.7457626,222342.296875,234764.140625,231373.921875,519138.34375,475853.28125,236093.078125,707786.625,210364.890625,0.0
1772497105.7457852,222365.53125,234762.171875,231366.140625,519098.09375,475769.15625,236092.8125,707787.3125,210363.90625,0.0
1772497105.7476394,222417.03125,234764.578125,231368.640625,519095.25,475734.1875,236097.828125,707790.125,210377.3125,0.0
1772497105.7501233,222425.4375,234767.359375,231370.78125,519077.8125,475697.625,236104.53125,707793.3125,210386.15625,0.0
1772497105.7526228,222395.671875,234764.9375,231368.1875,519015.9375,475617.96875,236101.75,707794.75,210383.5625,0.0
1772497105.7619536,222400.578125,234772.90625,231373.109375,518963.375,475528.28125,236105.15625,707794.0625,210388.75,0.0
1772497105.761968,222444.65625,234773.796875,231369.53125,518954.15625,475481.1875,236105.421875,707796.625,210385.71875,0.0
1772497105.7638645,222448.5,234770.390625,231364.609375,518931.71875,475434.5,236099.796875,707796.4375,210381.875,0.0
1772497105.767626,222421.140625,234770.125,231360.0625,518871.53125,475354.46875,236096.75,707795.0,210377.3125,0.0
1772497105.7744937,222418.28125,234779.421875,231371.234375,518812.8125,475255.6875,236104.171875,707796.5625,210380.890625,0.0
1772497105.7745154,222466.75,234782.015625,231378.390625,518800.46875,475201.15625,236108.90625,707797.625,210379.375,0.0
1772497105.7801323,222475.5,234775.140625,231371.046875,518775.875,475154.5625,236103.1875,707798.5,210372.125,0.0
1772497105.7826216,222450.828125,234774.6875,231368.734375,518720.96875,475081.78125,236094.96875,707797.875,210362.640625,0.0
1772497105.797783,222415.6875,234780.328125,231371.6875,518643.90625,474965.375,236095.9375,707796.375,210358.453125,0.0
1772497105.800713,222452.96875,234781.296875,231371.234375,518622.1875,474891.0,236100.5,707796.375,210354.609375,0.0
1772497105.800736,222460.03125,234766.015625,231357.109375,518595.71875,474826.71875,236091.109375,707795.8125,210349.59375,0.0
1772497105.8026197,222439.65625,234750.015625,231346.640625,518546.71875,474752.6875,236087.546875,707797.5,210352.453125,0.0
1772497105.8051353,222390.296875,234738.296875,231337.078125,518455.1875,474622.34375,236079.84375,707795.1875,210341.09375,0.0
1772497105.8188858,222419.890625,234734.28125,231334.578125,518421.46875,474528.28125,236080.125,707797.625,210331.53125,0.0
1772497105.8213632,222439.03125,234729.890625,231329.65625,518395.4375,474459.4375,236078.6875,707800.5,210323.125,0.0
1772497105.8238757,222414.703125,234730.609375,231324.390625,518350.375,474375.03125,236076.546875,707799.9375,210321.703125,0.0
1772497105.8263705,222365.890625,234735.34375,231322.59375,518265.53125,474240.65625,236077.265625,707799.125,210319.734375,0.0
1772497105.8288743,222389.765625,234751.890625,231333.0625,518225.84375,474137.375,236087.71875,707802.875,210327.15625,0.0
1772497105.8376231,222409.796875,234753.59375,231332.25,518198.5,474054.40625,236093.265625,707804.75,210330.8125,0.0
1772497105.8426228,222391.46875,234753.59375,231330.46875,518157.375,473962.15625,236095.765625,707804.6875,210330.546875,0.0
1772497105.8476217,222337.375,234750.640625,231324.5625,518067.25,473817.9375,236090.140625,707802.25,210328.234375,0.0
1772497105.8507447,222340.140625,234751.703125,231325.015625,518006.625,473683.8125,236091.75,707800.3125,210332.875,0.0
1772497105.8507645,222371.53125,234754.21875,231329.5625,517986.25,473591.8125,236092.375,707802.5625,210342.0,0.0
1772497105.8551288,222365.0,234749.03125,231327.328125,517954.84375,473507.5,236090.40625,707803.875,210339.40625,0.0
1772497105.8576198,222317.96875,234745.265625,231321.703125,517881.53125,473382.53125,236079.5,707801.375,210334.21875,0.0
1772497105.8663688,222305.453125,234746.25,231318.84375,517816.71875,473244.03125,236075.015625,707799.5625,210333.40625,0.0
1772497105.8876967,222353.734375,234759.9375,231327.25,517811.90625,473164.625,236091.5625,707804.4375,210347.53125,0.0
1772497105.8901107,222352.75,234753.5,231319.375,517786.78125,473082.65625,236090.84375,707804.4375,210344.765625,0.0
1772497105.8924687,222316.625,234761.09375,231326.078125,517729.46875,472965.96875,236092.375,707803.4375,210350.9375,0.0
1772497105.8963912,222292.9375,234766.546875,231329.65625,517659.53125,472814.78125,236090.9375,707803.0,210345.75,0.0
1772497105.905148,222327.71875,234766.734375,231321.609375,517638.09375,472710.53125,236093.078125,707803.4375,210339.84375,0.0
1772497105.9076211,222331.109375,234764.40625,231314.109375,517614.9375,472621.59375,236093.0,707803.875,210332.96875,0.0
1772497105.9101162,222298.65625,234756.8125,231305.96875,517562.1875,472509.90625,236089.0625,707802.4375,210327.0625,0.0
1772497105.9126155,222262.625,234754.390625,231301.234375,517485.1875,472363.90625,236088.4375,707803.4375,210327.15625,0.0
1772497105.915124,222294.71875,234752.15625,231298.09375,517458.28125,472259.3125,236089.859375,707805.1875,210323.125,0.0
1772497105.9176297,222300.0,234744.375,231293.09375,517433.875,472169.53125,236088.875,707805.375,210324.03125,0.0
1772497105.9206986,222270.234375,234739.375,231288.4375,517385.78125,472062.96875,236087.0,707806.1875,210319.90625,0.0
1772497105.9207091,222218.734375,234736.421875,231283.796875,517298.875,471903.5625,236083.421875,707806.5625,210316.78125,0.0
1772497105.9226239,222247.078125,234737.765625,231284.6875,517265.71875,471784.1875,236087.625,707810.125,210326.53125,0.0
1772497105.9251363,222255.46875,234732.484375,231279.046875,517232.625,471677.09375,236084.5,707807.875,210327.78125,0.0
1772497105.9276333,222230.53125,234732.578125,231275.296875,517186.65625,471562.28125,236082.53125,707807.1875,210325.546875,0.0
1772497105.930742,222177.78125,234742.234375,231274.578125,517104.59375,471405.09375,236084.59375,707809.875,210325.359375,0.0
1772497105.930761,222191.453125,234752.0625,231272.265625,517059.0,471269.9375,236094.25,707811.3125,210334.21875,0.0
1772497105.9326382,222209.15625,234757.078125,231270.203125,517032.53125,471162.1875,236098.1875,707809.625,210340.75,0.0
1772497105.93517,222193.25,234763.78125,231273.15625,516996.21875,471052.65625,236101.125,707810.75,210342.359375,0.0
1772497105.937634,222140.5,234772.0,231276.375,516918.53125,470893.15625,236106.21875,707810.75,210348.34375,0.0
1772497105.9469604,222130.84375,234775.140625,231276.734375,516858.09375,470726.34375,236103.90625,707811.0,210345.03125,0.0
1772497105.9469757,222156.765625,234781.21875,231275.03125,516839.3125,470610.28125,236111.140625,707814.875,210348.078125,0.0
1772497105.9488633,222135.9375,234777.8125,231270.375,516799.96875,470489.65625,236106.5,707813.25,210336.71875,0.0
1772497105.951377,222083.71875,234779.609375,231272.53125,516722.90625,470327.21875,236100.5,707811.625,210332.875,0.0
1772497105.957628,222072.109375,234784.796875,231274.578125,516660.40625,470159.21875,236104.078125,707811.75,210336.71875,0.0
1772497105.9669693,222105.625,234789.078125,231273.875,516643.4375,470041.90625,236112.84375,707814.125,210337.34375,0.0
1772497105.9669857,222090.703125,234779.421875,231263.40625,516610.875,469926.6875,236110.515625,707815.75,210332.078125,0.0
1772497105.9751348,222049.125,234773.171875,231258.21875,516547.84375,469782.375,236105.15625,707814.0,210337.4375,0.0
1772497105.9776385,222021.5,234781.03125,231265.546875,516480.34375,469611.34375,236109.625,707814.9375,210349.234375,0.0
1772497105.9839015,222061.640625,234791.046875,231277.09375,516465.34375,469485.0,236125.0,707817.75,210358.453125,0.0
1772497105.9863825,222062.453125,234792.84375,231284.953125,516443.4375,469366.4375,236131.53125,707817.5625,210364.609375,0.0
1772497105.988874,222025.078125,234791.59375,231286.390625,516393.09375,469226.625,236127.859375,707816.9375,210363.90625,0.0
1772497105.9913564,221988.5,234795.78125,231291.484375,516324.15625,469054.875,236130.28125,707813.4375,210366.140625,0.0
1772497106.0007675,222033.390625,234796.140625,231291.75,516314.6875,468938.8125,236140.015625,707815.0625,210366.046875,0.0
1772497106.000788,222041.609375,234780.671875,231278.703125,516291.78125,468833.3125,236132.6875,707814.3125,210352.359375,0.0
1772497106.0070004,222032.765625,234777.109375,231281.46875,516264.34375,468735.40625,236134.296875,707818.875,210356.65625,0.0
1772497106.007022,222001.375,234778.53125,231282.984375,516199.4375,468587.90625,236134.65625,707819.8125,210356.84375,0.0
1772497106.008872,222047.25,234787.5625,231283.609375,516183.875,468476.125,236142.25,707823.5625,210358.0,0.0
1772497106.0113907,222069.15625,234780.140625,231273.328125,516169.125,468380.1875,236136.890625,707822.375,210354.78125,0.0
1772497106.0251884,222062.265625,234776.75,231268.6875,516143.375,468286.40625,236134.65625,707821.0625,210352.640625,0.0
1772497106.046374,222037.859375,234785.953125,231275.5625,516091.15625,468162.59375,236140.640625,707825.3125,210357.734375,0.0
1772497106.0464053,222074.15625,234794.625,231281.203125,516073.71875,468056.46875,236145.296875,707828.625,210360.40625,0.0
1772497106.046414,222126.28125,234796.234375,231277.359375,516074.53125,467992.625,236146.90625,707831.0625,210360.859375,0.0
1772497106.054499,222127.4375,234790.421875,231266.625,516049.3125,467916.8125,236137.15625,707828.5625,210349.953125,0.0
1772497106.0545273,222097.140625,234781.9375,231254.5625,515988.15625,467804.5,236129.203125,707828.3125,210339.578125,0.0
1772497106.060171,222117.15625,234791.234375,231256.078125,515953.03125,467699.46875,236136.265625,707829.0,210346.109375,0.0
1772497106.0663905,222168.578125,234798.46875,231262.15625,515952.84375,467632.59375,236142.96875,707831.5,210356.125,0.0
1772497106.068869,222181.171875,234796.859375,231261.34375,515944.34375,467574.375,236143.15625,707834.75,210369.078125,0.0
1772497106.073874,222162.21875,234801.875,231261.265625,515901.625,467482.65625,236142.96875,707836.4375,210378.296875,0.0
1772497106.076371,222159.71875,234804.28125,231263.9375,515857.625,467368.21875,236140.109375,707835.875,210381.0625,0.0
1772497106.0788927,222211.21875,234803.828125,231259.828125,515858.78125,467301.96875,236142.609375,707838.0,210386.609375,0.0
1772497106.0813937,222233.390625,234805.890625,231255.0,515858.71875,467256.625,236146.109375,707838.8125,210392.59375,0.0
1772497106.083874,222216.859375,234800.796875,231248.390625,515820.875,467183.75,236145.125,707839.8125,210393.765625,0.0
1772497106.0863752,222208.09375,234796.328125,231239.359375,515765.28125,467081.5625,236144.765625,707839.1875,210389.65625,0.0
1772497106.088886,222257.53125,234787.46875,231227.734375,515753.75,467016.75,236143.15625,707839.25,210380.078125,0.0
1772497106.0919623,222281.671875,234784.4375,231226.390625,515749.375,466972.9375,236146.546875,707841.4375,210380.625,0.0
1772497106.0919788,222271.484375,234778.4375,231222.640625,515714.3125,466908.5625,236142.53125,707842.5,210378.203125,0.0
1772497106.1015673,222246.453125,234775.9375,231219.59375,515643.15625,466801.71875,236138.234375,707841.4375,210375.25,0.0
1772497106.1039004,222292.125,234778.984375,231221.03125,515624.625,466733.0625,236140.203125,707841.5,210376.59375,0.0
1772497106.1333754,222320.75,234780.140625,231218.609375,515613.71875,466693.09375,236142.4375,707844.5625,210374.1875,0.0
1772497106.1334007,222321.546875,234778.359375,231214.6875,515588.15625,466649.71875,236141.28125,707846.625,210373.015625,0.0
1772497106.1351204,222289.546875,234778.171875,231206.71875,515515.5625,466545.03125,236132.15625,707844.125,210375.4375,0.0
1772497106.1376271,222340.765625,234783.71875,231209.40625,515501.34375,466484.15625,236136.171875,707849.1875,210379.375,0.0
1772497106.1407151,222371.4375,234768.78125,231194.03125,515484.28125,466439.25,236127.234375,707849.5,210360.59375,0.0
1772497106.1407275,222366.421875,234761.28125,231182.21875,515454.5,466388.03125,236120.078125,707846.9375,210347.359375,0.0
1772497106.1438148,222348.28125,234773.703125,231189.640625,515397.71875,466310.59375,236132.953125,707852.125,210351.109375,0.0
1772497106.1438303,222373.5,234779.25,231197.421875,515360.25,466231.3125,236140.828125,707852.875,210353.890625,0.0
1772497106.143838,222416.40625,234775.40625,231193.84375,515348.8125,466191.59375,236136.359375,707855.9375,210341.453125,0.0
1772497106.146392,222432.765625,234777.546875,231193.484375,515337.1875,466167.75,236135.375,707860.8125,210342.703125,0.0
1772497106.1513712,222405.140625,234781.125,231192.59375,515278.375,466094.5,236136.625,707860.625,210344.59375,0.0
1772497106.16138,222425.4375,234785.328125,231190.546875,515235.90625,466020.40625,236138.5,707861.4375,210344.953125,0.0
1772497106.1676433,222483.828125,234796.859375,231194.125,515236.0,465996.15625,236149.59375,707866.75,210356.84375,0.0
1772497106.1707296,222488.46875,234794.71875,231188.390625,515216.21875,465961.84375,236150.484375,707867.0,210359.34375,0.0
1772497106.1707463,222453.78125,234787.03125,231176.0625,515153.1875,465881.53125,236144.765625,707864.0625,210351.203125,0.0
1772497106.1726522,222435.984375,234780.5,231162.640625,515086.0625,465773.8125,236135.546875,707858.9375,210337.609375,0.0
1772497106.1751344,222479.0,234771.46875,231148.703125,515074.15625,465722.40625,236128.75,707854.6875,210322.421875,0.0
1772497106.1814091,222498.390625,234768.15625,231143.78125,515069.6875,465699.15625,236130.453125,707856.5625,210327.328125,0.0
1772497106.1838927,222481.9375,234767.625,231143.0625,515030.34375,465646.59375,236132.59375,707858.25,210337.96875,0.0
1772497106.1863897,222470.328125,234767.796875,231140.921875,514973.75,465559.0625,236134.5625,707858.6875,210343.875,0.0
1772497106.188887,222529.15625,234773.53125,231145.65625,514970.4375,465524.28125,236141.625,707861.75,210352.90625,0.0
1772497106.1919615,222556.515625,234774.515625,231152.625,514962.21875,465503.71875,236142.53125,707863.875,210362.46875,0.0
1772497106.1919713,222539.25,234767.09375,231152.28125,514920.65625,465454.71875,236134.390625,707864.875,210350.84375,0.0
1772497106.1938953,222508.859375,234766.546875,231155.671875,514848.75,465361.90625,236130.453125,707863.75,210348.25,0.0
1772497106.196387,222559.546875,234776.125,231157.546875,514835.4375,465320.34375,236136.71875,707868.0,210351.296875,0.0
1772497106.1988685,222581.0,234783.09375,231155.765625,514820.5,465284.84375,236135.90625,707868.0,210354.25,0.0
1772497106.2095,222571.96875,234778.171875,231150.578125,514785.375,465238.25,236136.890625,707869.875,210357.1875,0.0
1772497106.2095232,222533.703125,234771.828125,231141.28125,514703.65625,465142.0625,236136.53125,707869.4375,210353.796875,0.0
1772497106.2114232,222558.828125,234774.78125,231141.015625,514665.65625,465065.875,236137.703125,707869.75,210354.78125,0.0
1772497106.213899,222589.859375,234777.8125,231140.390625,514649.125,465022.96875,236139.578125,707871.75,210357.734375,0.0
1772497106.2164085,222582.609375,234775.84375,231136.625,514613.71875,464975.9375,236134.484375,707873.1875,210355.234375,0.0
1772497106.2257752,222536.75,234780.40625,231137.796875,514532.25,464872.0625,236130.8125,707870.6875,210353.0,0.0
1772497106.2258036,222555.890625,234788.640625,231137.515625,514491.0625,464788.53125,236132.421875,707871.8125,210351.03125,0.0
1772497106.2282863,222583.421875,234795.15625,231137.25,514471.75,464729.28125,236133.9375,707874.25,210349.5,0.0
1772497106.2283025,222571.890625,234797.125,231135.015625,514440.4375,464663.65625,236133.765625,707873.5,210354.875,0.0
1772497106.2338772,222523.515625,234787.203125,231124.734375,514358.1875,464551.0,236124.90625,707872.0625,210343.875,0.0
1772497106.243873,222516.984375,234785.5,231122.0625,514298.8125,464437.875,236128.578125,707871.125,210344.140625,0.0
1772497106.2463899,222548.8125,234796.234375,231123.390625,514281.375,464371.90625,236142.078125,707875.25,210352.359375,0.0
1772497106.2526493,222533.796875,234795.078125,231115.625,514241.0625,464297.875,236140.203125,707874.75,210351.203125,0.0
1772497106.255132,222489.09375,234796.859375,231117.5,514166.6875,464188.4375,236139.390625,707872.0,210353.0,0.0
1772497106.2613978,222470.765625,234804.8125,231125.546875,514098.90625,464062.125,236145.828125,707873.0625,210369.625,0.0
1772497106.270172,222499.203125,234810.359375,231125.453125,514072.96875,463973.875,236152.71875,707875.875,210380.625,0.0
1772497106.2733293,222480.515625,234799.640625,231111.6875,514026.3125,463877.9375,236143.328125,707875.5,210368.8125,0.0
1772497106.273353,222437.78125,234799.640625,231113.734375,513961.65625,463763.40625,236147.359375,707875.75,210374.984375,0.0
1772497106.278905,222397.09375,234808.125,231122.5,513882.1875,463609.4375,236155.84375,707874.875,210386.34375,0.0
1772497106.2819848,222432.328125,234821.0,231136.453125,513861.34375,463505.375,236168.359375,707877.5625,210395.734375,0.0
1772497106.2820027,222428.828125,234819.84375,231134.65625,513827.03125,463407.28125,236171.3125,707879.5,210398.765625,0.0
1772497106.2888973,222382.703125,234809.734375,231126.25,513764.625,463288.28125,236165.5,707879.875,210398.40625,0.0
1772497106.2913883,222327.71875,234809.46875,231128.5,513678.0625,463129.78125,236163.265625,707879.25,210391.4375,0.0
1772497106.301685,222354.53125,234821.453125,231141.90625,513649.90625,463015.4375,236171.765625,707881.8125,210401.0,0.0
1772497106.3044856,222355.96875,234812.15625,231133.40625,513621.46875,462916.375,236165.59375,707881.1875,210401.890625,0.0
1772497106.3045013,222321.90625,234803.203125,231122.6875,513564.96875,462799.875,236156.734375,707879.125,210399.578125,0.0
1772497106.3088996,222264.859375,234800.96875,231115.796875,513470.1875,462635.96875,236153.078125,707878.5,210397.34375,0.0
1772497106.3151276,222283.109375,234805.0,231113.203125,513424.78125,462498.65625,236154.6875,707878.1875,210394.5625,0.0
1772497106.317622,222299.203125,234805.71875,231106.859375,513402.0625,462394.9375,236156.03125,707879.125,210392.15625,0.0
1772497106.3201532,222281.5,234808.84375,231103.015625,513369.875,462293.1875,236159.328125,707881.125,210392.0625,0.0
1772497106.3232827,222225.078125,234807.59375,231099.703125,513287.0,462139.15625,236155.40625,707880.25,210389.828125,0.0
1772497106.3232925,222235.890625,234823.140625,231111.59375,513245.6875,462012.09375,236166.21875,707885.0625,210399.3125,0.0
1772497106.3251243,222256.375,234825.46875,231107.578125,513222.28125,461912.5,236168.453125,707887.125,210399.65625,0.0
1772497106.3508527,222237.953125,234817.96875,231099.078125,513185.15625,461807.71875,236165.6875,707885.875,210394.921875,0.0
1772497106.3508809,222178.3125,234811.609375,231091.390625,513102.8125,461653.5,236157.453125,707884.8125,210392.328125,0.0
1772497106.355153,222173.3125,234830.03125,231102.75,513049.1875,461506.40625,236165.953125,707888.375,210399.3125,0.0
1772497106.3613868,222200.40625,234834.6875,231099.078125,513024.6875,461391.15625,236172.203125,707890.0,210395.90625,0.0
1772497106.363871,222189.5,234834.328125,231098.71875,512994.8125,461284.15625,236177.84375,707892.125,210399.3125,0.0
1772497106.385213,222139.15625,234832.171875,231098.984375,512928.03125,461135.28125,236178.375,707892.0,210405.296875,0.0
1772497106.3876407,222112.6875,234842.453125,231107.921875,512861.53125,460969.4375,236189.828125,707891.9375,210413.15625,0.0
1772497106.390142,222136.75,234838.25,231102.390625,512839.96875,460849.09375,236190.890625,707892.5,210408.78125,0.0
1772497106.392651,222132.625,234840.3125,231103.09375,512819.3125,460744.84375,236189.203125,707893.0,210409.5,0.0
1772497106.3988833,222096.6875,234839.59375,231103.734375,512768.09375,460622.4375,236193.390625,707894.8125,210414.59375,0.0
1772497106.401382,222062.171875,234838.875,231103.640625,512692.09375,460456.34375,236192.953125,707892.8125,210421.390625,0.0
1772497106.4039094,222094.625,234843.4375,231110.4375,512671.53125,460333.40625,236195.28125,707893.1875,210426.84375,0.0
1772497106.4068124,222094.625,234835.578125,231104.0,512644.96875,460219.40625,236185.890625,707891.9375,210429.34375,0.0
1772497106.4068215,222066.109375,234827.890625,231097.109375,512595.8125,460091.1875,236179.1875,707890.5,210432.65625,0.0
1772497106.4102263,222020.78125,234825.03125,231096.578125,512519.1875,459922.75,236178.203125,707890.0,210436.234375,0.0
1772497106.4188786,222051.0,234826.90625,231093.265625,512495.40625,459797.84375,236181.59375,707891.5625,210428.984375,0.0
1772497106.4213765,222057.96875,234824.125,231087.640625,512473.03125,459688.3125,236178.46875,707891.875,210428.8125,0.0
1772497106.4263775,222031.875,234819.921875,231080.75,512440.15625,459577.0,236172.828125,707891.3125,210428.09375,0.0
1772497106.4288788,221994.3125,234826.71875,231080.75,512374.34375,459430.65625,236175.25,707894.0625,210428.359375,0.0
1772497106.4338973,222023.640625,234828.421875,231077.359375,512345.90625,459306.5625,236179.0,707895.25,210423.53125,0.0
1772497106.439519,222048.140625,234823.421875,231070.46875,512330.875,459204.0,236173.453125,707894.6875,210417.359375,0.0
1772497106.43954,222043.671875,234828.0625,231071.09375,512312.8125,459109.6875,236172.921875,707895.6875,210417.1875,0.0
1772497106.4413896,222011.75,234831.734375,231071.71875,512252.03125,458974.84375,236172.03125,707898.5625,210413.609375,0.0
1772497106.4444723,222034.90625,234837.09375,231073.5,512215.625,458855.0625,236175.609375,707900.375,210412.984375,0.0
1772497106.4444852,222070.21875,234833.96875,231072.875,512201.4375,458768.3125,236172.296875,707899.0,210406.546875,0.0
1772497106.446382,222080.15625,234841.921875,231074.765625,512189.625,458702.15625,236178.375,707901.75,210410.390625,0.0
1772497106.4488904,222051.0,234849.25,231076.546875,512131.59375,458591.5625,236180.609375,707904.1875,210410.65625,0.0
1772497106.4513717,222055.5625,234850.59375,231079.765625,512084.75,458472.84375,236184.015625,707904.8125,210410.390625,0.0
1772497106.4538782,222102.953125,234845.140625,231075.390625,512083.84375,458403.09375,236189.375,707905.4375,210398.671875,0.0
1772497106.4563813,222116.984375,234841.65625,231075.390625,512074.375,458344.90625,236192.5,707905.8125,210396.359375,0.0
1772497106.4589083,222098.5625,234839.953125,231076.453125,512030.46875,458256.1875,236196.265625,707904.875,210401.8125,0.0
1772497106.4620144,222104.921875,234842.28125,231073.78125,511990.34375,458160.09375,236204.65625,707908.0625,210411.375,0.0
1772497106.462033,222172.5,234846.296875,231073.859375,512003.65625,458117.09375,236213.34375,707910.875,210421.65625,0.0
1772497106.4676523,222201.46875,234847.203125,231072.171875,512008.5625,458086.6875,236217.8125,707912.3125,210429.796875,0.0
1772497106.4707308,222195.578125,234846.84375,231072.25,511982.8125,458035.71875,236216.90625,707910.5625,210436.859375,0.0
1772497106.470749,222188.15625,234846.484375,231067.515625,511933.375,457950.25,236213.15625,707911.3125,210443.65625,0.0
1772497106.4789174,222261.28125,234858.1875,231076.640625,511950.46875,457921.8125,236225.40625,707916.6875,210462.0625,0.0
1772497106.48139,222293.5625,234853.546875,231067.703125,511947.15625,457894.375,236227.015625,707918.3125,210463.671875,0.0
1772497106.4838765,222295.53125,234847.640625,231062.59375,511925.875,457854.6875,236219.765625,707921.5625,210460.546875,0.0
1772497106.4876764,222277.375,234845.859375,231063.84375,511870.875,457767.78125,236209.046875,707920.75,210446.875,0.0
1772497106.4969819,222336.03125,234851.9375,231067.34375,511866.59375,457719.125,236208.859375,707918.6875,210440.34375,0.0
1772497106.497006,222386.28125,234856.40625,231069.125,511879.75,457711.625,236209.3125,707923.125,210439.265625,0.0
1772497106.4994547,222403.625,234856.3125,231069.390625,511876.53125,457707.15625,236205.015625,707925.4375,210434.625,0.0
1772497106.4994636,222390.84375,234862.3125,231073.234375,511826.28125,457654.5,236207.34375,707925.3125,210436.59375,0.0
1772497106.5076406,222444.484375,234870.359375,231078.421875,511815.625,457624.625,236209.671875,707926.625,210440.4375,0.0
1772497106.510149,222493.203125,234871.421875,231080.21875,511821.53125,457622.84375,236212.4375,707930.375,210441.234375,0.0
1772497106.5239525,222511.71875,234868.46875,231078.875,511812.3125,457622.75,236212.796875,707931.25,210440.609375,0.0
1772497106.5269785,222497.046875,234868.203125,231075.65625,511757.34375,457572.15625,236208.953125,707930.8125,210447.3125,0.0
1772497106.5269911,222526.640625,234869.8125,231073.953125,511729.34375,457530.75,236208.421875,707933.3125,210452.6875,0.0
1772497106.5288775,222586.640625,234874.90625,231077.53125,511733.1875,457532.1875,236213.15625,707935.9375,210456.703125,0.0
1772497106.5339513,222607.375,234871.96875,231075.390625,511720.9375,457535.84375,236214.40625,707938.0,210458.578125,0.0
1772497106.536981,222593.515625,234867.140625,231072.609375,511675.09375,457506.875,236212.4375,707937.6875,210459.828125,0.0
1772497106.5370047,222617.390625,234879.734375,231079.671875,511646.65625,457476.03125,236221.03125,707940.0625,210472.0,0.0
1772497106.549029,222677.921875,234880.90625,231076.90625,511650.9375,457481.9375,236225.140625,707943.0625,210461.359375,0.0
1772497106.5514035,222703.046875,234875.984375,231068.40625,511638.15625,457489.4375,236222.546875,707943.875,210447.3125,0.0
1772497106.5789137,222694.546875,234879.390625,231066.53125,511597.03125,457466.75,236224.0625,707942.375,210453.578125,0.0
1772497106.581382,222704.203125,234880.28125,231064.75,511557.59375,457429.71875,236228.09375,707942.75,210461.4375,0.0
1772497106.5838892,222776.546875,234888.59375,231075.296875,511573.25,457450.03125,236241.671875,707946.5,210475.125,0.0
1772497106.5863779,222811.40625,234887.703125,231076.1875,511575.84375,457481.5,236246.0625,707950.0625,210476.1875,0.0
1772497106.5888855,222812.84375,234881.0,231071.890625,511549.5625,457493.375,236241.234375,707951.1875,210472.53125,0.0
1772497106.5913968,222809.265625,234881.890625,231074.3125,511505.40625,457470.59375,236240.6875,707951.6875,210476.1875,0.0
1772497106.5939107,222880.34375,234880.90625,231074.484375,511514.25,457497.40625,236241.671875,707955.0,210476.375,0.0
1772497106.5963807,222923.53125,234881.4375,231077.625,511520.59375,457540.59375,236240.609375,707957.0,210478.4375,0.0
1772497106.5989218,222927.546875,234874.015625,231075.109375,511503.0625,457571.34375,236237.03125,707957.625,210477.265625,0.0
1772497106.601395,222908.6875,234868.46875,231066.265625,511439.59375,457549.25,236228.265625,707956.75,210471.015625,0.0
1772497106.606385,222967.25,234878.84375,231075.75,511434.84375,457567.15625,236237.921875,707960.6875,210474.578125,0.0
1772497106.6088824,222997.734375,234872.40625,231069.125,511422.78125,457594.40625,236236.84375,707960.875,210462.6875,0.0
1772497106.61197,222997.203125,234866.421875,231063.21875,511391.5,457617.9375,236233.0,707962.3125,210452.953125,0.0
1772497106.6119816,222968.046875,234865.890625,231062.328125,511321.40625,457595.21875,236229.78125,707962.375,210451.421875,0.0
1772497106.621448,223002.828125,234869.8125,231064.203125,511294.84375,457596.03125,236231.75,707966.0625,210449.109375,0.0
1772497106.6390028,223038.328125,234868.46875,231061.703125,511280.34375,457620.15625,236226.75,707966.6875,210445.53125,0.0
1772497106.641386,223042.796875,234872.765625,231061.53125,511257.8125,457648.0625,236231.671875,707970.6875,210438.640625,0.0
1772497106.6469755,223001.390625,234873.125,231052.3125,511181.65625,457614.4375,236229.96875,707971.0,210431.3125,0.0
1772497106.6469865,223017.046875,234882.953125,231054.375,511137.03125,457587.71875,236238.546875,707970.875,210430.421875,0.0
1772497106.6488855,223051.90625,234881.796875,231045.34375,511122.375,457594.6875,236241.328125,707973.375,210427.46875,0.0
1772497106.651383,223053.796875,234880.453125,231043.640625,511097.96875,457602.0,236245.515625,707975.8125,210433.28125,0.0
1772497106.653878,223012.578125,234877.6875,231035.953125,511027.78125,457563.125,236245.078125,707975.25,210438.90625,0.0
1772497106.656399,223006.671875,234884.5625,231036.671875,510968.6875,457512.59375,236253.84375,707975.6875,210445.265625,0.0
1772497106.6588955,223046.1875,234893.515625,231044.453125,510953.125,457501.6875,236264.125,707977.6875,210455.453125,0.0
1772497106.661383,223033.234375,234888.328125,231043.46875,510915.40625,457484.8125,236264.484375,707978.1875,210465.734375,0.0
1772497106.6663969,222993.34375,234889.84375,231047.40625,510844.5,457439.5625,236267.25,707979.5625,210475.125,0.0
1772497106.6726804,222959.734375,234899.234375,231055.890625,510767.25,457356.59375,236271.71875,707981.1875,210485.84375,0.0
1772497106.675146,222985.03125,234904.6875,231055.71875,510734.15625,457312.78125,236274.578125,707981.4375,210491.578125,0.0
1772497106.6819909,222973.6875,234905.3125,231055.171875,510695.90625,457271.75,236272.4375,707982.0625,210497.75,0.0
1772497106.6820116,222928.984375,234905.578125,231051.25,510629.375,457204.78125,236267.875,707982.6875,210499.34375,0.0
1772497106.710172,222876.671875,234921.140625,231064.65625,510542.125,457091.3125,236273.421875,707981.8125,210509.90625,0.0
1772497106.7214527,222884.28125,234921.21875,231062.78125,510493.21875,457007.0,236272.96875,707978.375,210502.21875,0.0
1772497106.7277858,222872.203125,234914.515625,231055.171875,510457.71875,456946.9375,236270.828125,707977.4375,210506.421875,0.0
1772497106.7333088,222833.140625,234916.484375,231056.96875,510404.875,456872.90625,236275.296875,707979.1875,210511.328125,0.0
1772497106.733327,222774.578125,234928.921875,231075.109375,510317.0,456750.40625,236290.40625,707980.75,210521.96875,0.0
1772497106.7351432,222779.3125,234924.796875,231076.71875,510267.8125,456651.09375,236287.640625,707982.0625,210519.203125,0.0
1772497106.7439225,222757.046875,234909.25,231063.578125,510213.0,456555.5,236265.640625,707977.0625,210503.015625,0.0
1772497106.7475667,222729.78125,234915.953125,231070.015625,510169.46875,456478.15625,236272.96875,707979.75,210499.171875,0.0
1772497106.7475853,222655.65625,234913.625,231068.234375,510068.09375,456333.0625,236268.59375,707974.625,210488.984375,0.0
1772497106.7475927,222668.796875,234923.375,231076.71875,510030.625,456242.9375,236282.625,707979.75,210494.171875,0.0
1772497106.7720149,222688.109375,234931.59375,231077.53125,510009.0625,456176.78125,236291.5625,707986.375,210500.515625,0.0
1772497106.7720425,222660.046875,234935.4375,231072.4375,509971.625,456095.5,236293.359375,707985.5625,210505.078125,0.0
1772497106.7738974,222594.15625,234937.953125,231065.109375,509886.84375,455968.375,236289.15625,707982.6875,210510.078125,0.0
1772497106.7764056,222601.84375,234958.515625,231081.109375,509852.0625,455864.21875,236311.234375,707987.4375,210526.796875,0.0
1772497106.7789328,222617.3125,234948.671875,231069.578125,509831.6875,455782.03125,236312.578125,707988.6875,210522.0625,0.0
1772497106.781387,222589.765625,234946.890625,231067.34375,509790.5625,455702.125,236310.34375,707985.375,210523.3125,0.0
1772497106.783878,222544.796875,234963.6875,231087.359375,509734.5,455583.28125,236327.953125,707984.5,210550.84375,0.0
1772497106.7864788,222553.921875,234978.453125,231098.09375,509704.65625,455485.5625,236351.5625,707995.9375,210568.375,0.0
1772497106.7894835,222576.53125,234961.90625,231082.984375,509679.96875,455411.8125,236342.34375,707998.625,210559.875,0.0
1772497106.789493,222549.71875,234957.609375,231082.09375,509639.75,455319.0,236334.578125,707995.8125,210562.828125,0.0
1772497106.7913785,222474.796875,234944.03125,231071.359375,509556.21875,455178.375,236315.53125,707985.625,210553.53125,0.0
1772497106.796451,222429.015625,234943.21875,231068.40625,509479.25,455024.6875,236313.46875,707980.375,210548.34375,0.0
1772497106.7995355,222448.953125,234934.90625,231053.65625,509452.6875,454926.59375,236308.640625,707980.8125,210530.015625,0.0
1772497106.799552,222444.65625,234936.25,231051.25,509431.6875,454839.34375,236310.15625,707982.75,210531.890625,0.0
1772497106.801404,222416.5,234947.59375,231064.65625,509394.40625,454731.34375,236315.265625,707982.9375,210540.03125,0.0
1772497106.8039043,222369.109375,234956.8125,231079.234375,509320.65625,454570.21875,236317.765625,707977.875,210543.34375,0.0
1772497106.8063831,222402.453125,234958.515625,231077.171875,509301.78125,454477.9375,236330.640625,707981.5,210543.34375,0.0
1772497106.808893,222410.6875,234960.03125,231083.4375,509287.5625,454401.15625,236332.96875,707983.75,210549.515625,0.0
1772497106.8125799,222363.125,234942.953125,231061.4375,509226.6875,454292.4375,236317.9375,707981.8125,210531.71875,0.0
1772497106.8125947,222319.484375,234953.0625,231069.3125,509153.8125,454156.625,236327.953125,707985.4375,210531.71875,0.0
1772497106.812602,222349.625,234965.484375,231079.59375,509133.5,454044.25,236339.3125,707988.75,210539.5,0.0
1772497106.8157144,222345.6875,234943.9375,231054.375,509100.34375,453932.9375,236320.890625,707986.8125,210519.5625,0.0
1772497106.8157218,222326.828125,234953.140625,231059.203125,509073.25,453831.4375,236325.546875,707988.5,210535.03125,0.0
1772497106.8176389,222279.078125,234966.828125,231063.5,509002.71875,453692.96875,236331.359375,707990.3125,210547.984375,0.0
1772497106.8202348,222294.90625,234978.265625,231077.4375,508977.40625,453571.71875,236332.25,707991.4375,210553.53125,0.0
1772497106.838369,222306.4375,234963.609375,231061.796875,508953.90625,453482.59375,236321.96875,707989.5625,210536.1875,0.0
1772497106.838395,222302.234375,234967.359375,231067.25,508937.71875,453420.8125,236323.75,707992.375,210531.1875,0.0
1772497106.8401837,222278.359375,234983.90625,231091.828125,508901.59375,453322.625,236332.515625,707997.375,210536.546875,0.0
1772497106.8426642,222273.71875,234982.734375,231090.140625,508860.09375,453191.375,236327.59375,707992.5,210532.703125,0.0
1772497106.8451488,222294.71875,234969.0625,231063.140625,508839.09375,453097.6875,236320.890625,707989.3125,210518.125,0.0
1772497106.8476546,222296.515625,234958.59375,231047.484375,508828.0,453029.46875,236320.796875,707992.375,210514.28125,0.0
1772497106.8501375,222282.125,234972.8125,231059.203125,508799.3125,452942.84375,236334.921875,708000.0625,210533.234375,0.0
1772497106.8533,222286.234375,234976.75,231059.375,508766.21875,452837.34375,236332.421875,708001.0,210546.015625,0.0
1772497106.8533127,222337.734375,234978.796875,231062.328125,508774.1875,452782.875,236338.5,707999.5625,210550.671875,0.0
1772497106.855141,222369.46875,234990.25,231075.75,508791.875,452760.09375,236357.109375,708005.75,210566.3125,0.0
1772497106.8576496,222336.125,234974.0625,231054.90625,508742.625,452682.125,236343.609375,708002.625,210556.84375,0.0
1772497106.866978,222322.171875,234960.296875,231037.46875,508699.625,452601.75,236334.296875,708004.125,210543.875,0.0
1772497106.8669937,222391.640625,234972.640625,231048.828125,508718.03125,452575.71875,236344.9375,708008.1875,210557.375,0.0
1772497106.8688865,222427.5,234977.90625,231057.953125,508733.6875,452555.15625,236348.609375,708009.75,210565.6875,0.0
1772497106.8771002,222426.25,234977.828125,231053.484375,508712.21875,452514.40625,236350.84375,708009.625,210565.0625,0.0
1772497106.87713,222414.890625,234978.71875,231050.078125,508666.09375,452439.84375,236350.75,708007.4375,210568.90625,0.0
1772497106.8794737,222479.265625,234978.890625,231048.296875,508675.21875,452414.15625,236355.3125,708007.0,210571.765625,0.0
1772497106.8794918,222534.96875,234981.75,231050.625,508703.8125,452434.8125,236361.03125,708013.8125,210572.046875,0.0
1772497106.8826516,222522.625,234960.65625,231032.015625,508676.46875,452412.28125,236338.234375,708007.75,210557.640625,0.0
1772497106.8913958,222532.90625,234974.421875,231044.71875,508650.1875,452390.46875,236352.625,708011.75,210576.6875,0.0
1772497106.894478,222578.6875,234969.234375,231033.8125,508638.28125,452374.5625,236348.875,708013.625,210569.0,0.0
1772497106.8944879,222625.171875,234966.109375,231023.078125,508640.15625,452383.9375,236346.015625,708014.4375,210562.921875,0.0
1772497106.8964026,222646.625,234963.25,231014.5,508637.125,452399.25,236345.484375,708016.5,210560.234375,0.0
1772497106.9108005,222621.234375,234954.75,231005.734375,508575.0625,452352.46875,236337.25,708015.5625,210556.84375,0.0
1772497106.9108255,222659.953125,234960.65625,231015.484375,508556.9375,452331.28125,236339.40625,708018.4375,210558.984375,0.0
1772497106.9126325,222722.71875,234964.5,231025.5,508574.1875,452359.09375,236343.609375,708024.6875,210560.234375,0.0
1772497106.9151535,222736.3125,234957.4375,231019.421875,508557.03125,452370.8125,236334.03125,708024.25,210548.890625,0.0
1772497106.918881,222704.125,234950.8125,231013.25,508494.34375,452333.96875,236321.25,708020.25,210540.03125,0.0
1772497106.9331467,222727.640625,234953.5,231011.1875,508461.53125,452317.4375,236323.578125,708021.3125,210540.5625,0.0
1772497106.933173,222782.34375,234954.671875,231008.78125,508464.46875,452344.96875,236327.515625,708025.625,210545.578125,0.0
1772497106.940864,222796.390625,234946.625,231001.71875,508448.9375,452362.40625,236321.078125,708025.625,210545.3125,0.0
1772497106.9408808,222786.109375,234945.71875,231001.984375,508409.21875,452353.09375,236321.609375,708028.8125,210553.53125,0.0
1772497106.9426453,222798.71875,234954.578125,231007.796875,508365.5,452321.375,236329.75,708031.9375,210558.453125,0.0
1772497106.947654,222850.296875,234956.09375,231006.546875,508355.3125,452328.25,236329.5625,708031.5625,210553.71875,0.0
1772497106.9501367,222864.609375,234951.0,231005.734375,508341.0,452346.9375,236327.515625,708032.5625,210546.640625,0.0
1772497106.9526525,222841.625,234937.3125,230996.265625,508292.5625,452334.15625,236312.21875,708031.5625,210533.421875,0.0
1772497106.9594996,222826.421875,234935.703125,230997.328125,508233.375,452295.34375,236308.109375,708031.6875,210535.203125,0.0
1772497106.959519,222882.9375,234936.609375,231000.375,508231.125,452311.25,236311.421875,708034.8125,210530.375,0.0
1772497106.9613929,222913.78125,234939.734375,231006.453125,508230.3125,452340.84375,236316.25,708037.125,210531.8125,0.0
1772497106.9701579,222899.296875,234930.34375,231002.609375,508189.09375,452336.65625,236305.421875,708034.75,210521.96875,0.0
1772497106.9733112,222874.265625,234924.71875,231001.171875,508123.21875,452295.53125,236298.90625,708034.8125,210509.90625,0.0
1772497106.9733293,222922.546875,234928.109375,231001.09375,508108.65625,452295.4375,236302.65625,708034.75,210501.40625,0.0
1772497106.98393,222950.96875,234918.984375,230988.578125,508095.9375,452311.53125,236297.015625,708033.8125,210493.984375,0.0
1772497106.98705,222949.90625,234915.234375,230980.875,508071.53125,452326.8125,236294.421875,708036.0625,210501.40625,0.0
1772497106.9870727,222915.75,234915.6875,230977.65625,508005.46875,452291.3125,236295.953125,708037.0625,210515.984375,0.0
1772497106.9926608,222951.953125,234915.765625,230977.484375,507980.0625,452282.84375,236295.234375,708037.5625,210513.484375,0.0
1772497106.9969945,222984.328125,234911.75,230975.25,507970.34375,452298.84375,236288.609375,708036.625,210509.09375,0.0
1772497106.9970124,222982.984375,234912.203125,230976.953125,507952.0,452311.4375,236287.90625,708035.875,210508.828125,0.0
1772497107.013888,222940.59375,234908.0,230968.546875,507878.25,452264.3125,236278.25,708036.125,210499.53125,0.0
1772497107.013939,222955.984375,234908.0,230963.53125,507837.1875,452228.21875,236277.890625,708034.375,210491.65625,0.0
1772497107.0139484,222994.328125,234912.109375,230966.046875,507832.1875,452236.4375,236284.234375,708035.6875,210493.359375,0.0
1772497107.0163913,222994.953125,234912.203125,230965.59375,507811.1875,452235.28125,236283.78125,708036.25,210498.90625,0.0
1772497107.0188916,222947.390625,234903.34375,230957.90625,507733.03125,452180.1875,236276.09375,708031.9375,210490.671875,0.0
1772497107.0213892,222955.71875,234915.5,230965.6875,507687.09375,452139.25,236287.984375,708034.8125,210501.859375,0.0
1772497107.0325625,222987.359375,234914.515625,230960.046875,507665.625,452130.75,236289.59375,708036.75,210505.25,0.0
1772497107.0407493,222979.40625,234911.296875,230959.328125,507634.34375,452118.59375,236289.515625,708038.375,210509.90625,0.0
1772497107.040772,222938.8125,234915.6875,230966.84375,507571.40625,452066.1875,236291.390625,708037.375,210522.6875,0.0
1772497107.0426435,222913.328125,234915.140625,230961.390625,507501.125,451987.96875,236286.65625,708035.6875,210518.3125,0.0
1772497107.0451436,222940.25,234910.9375,230950.578125,507470.28125,451947.75,236281.015625,708033.9375,210510.890625,0.0
1772497107.0489051,222935.140625,234910.9375,230951.375,507439.6875,451915.625,236280.125,708033.5,210513.921875,0.0
1772497107.0533493,222896.171875,234910.046875,230947.984375,507380.5,451854.5625,236278.953125,708032.0625,210512.578125,0.0
1772497107.053372,222855.84375,234912.015625,230945.203125,507305.78125,451759.53125,236279.59375,708031.5,210502.125,0.0
1772497107.0664299,222883.296875,234912.28125,230947.4375,507281.90625,451709.65625,236277.984375,708031.125,210500.6875,0.0
1772497107.073318,222886.953125,234907.8125,230946.109375,507258.46875,451674.96875,236272.96875,708032.5625,210501.59375,0.0
1772497107.0733364,222849.3125,234903.34375,230942.703125,507204.65625,451611.75,236268.140625,708032.125,210500.0625,0.0
1772497107.0764563,222801.3125,234904.78125,230947.53125,507121.3125,451502.84375,236267.15625,708031.5625,210506.140625,0.0
1772497107.0764759,222830.09375,234903.96875,230951.203125,507092.25,451440.875,236269.84375,708033.5,210497.65625,0.0
1772497107.076482,222837.25,234899.953125,230947.09375,507069.375,451394.03125,236268.765625,708033.1875,210495.59375,0.0
1772497107.080152,222814.984375,234894.9375,230939.9375,507033.96875,451340.65625,236262.78125,708033.1875,210493.453125,0.0
1772497107.0939193,222765.984375,234894.578125,230940.015625,506957.0,451239.8125,236256.515625,708032.25,210488.4375,0.0
1772497107.0988197,222785.21875,234900.3125,230947.71875,506925.875,451164.71875,236260.28125,708032.875,210487.109375,0.0
