timestamps,Fz,C3,Cz,C4,Pz,PO7,Oz,PO8,stim
1762651844.7229078,72837.0078125,72563.15625,73123.5546875,72916.3984375,73012.0625,73106.2109375,73203.21875,73365.578125,0.0
1762651844.7253711,73566.03125,73292.0859375,73853.1171875,73645.515625,73741.1796875,73835.1484375,73932.78125,74095.6796875,0.0
1762651844.72764,73409.4765625,73135.265625,73696.65625,73488.875,73584.2734375,73678.8671875,73776.40625,73938.9453125,0.0
1762651844.7307868,72604.3671875,72330.15625,72890.828125,72683.671875,72779.1640625,72873.6640625,72970.578125,73132.765625,0.0
1762651844.7331152,72869.375,72595.1640625,73155.5625,72948.8515625,73044.0703125,73138.3984375,73235.3125,73397.765625,0.0
1762651844.7355127,73720.3515625,73445.78125,74006.8984375,73799.5625,73894.9609375,73988.65625,74086.5625,74249.640625,0.0
1762651844.7482708,73704.96875,73430.3125,73991.34375,73784.453125,73879.5859375,73973.3671875,74071.2734375,74234.53125,0.0
1762651844.7483473,72931.6015625,72657.5703125,73217.96875,73010.6328125,73106.390625,73200.1796875,73297.71875,73460.265625,0.0
1762651844.7508783,72919.2578125,72645.2265625,73205.8984375,72998.65625,73094.0546875,73188.109375,73285.4765625,73447.75,0.0
1762651844.750954,73840.3359375,73565.9453125,74126.96875,73919.90625,74014.765625,74109.0,74206.71875,74369.890625,0.0
1762651844.7530603,73971.3125,73697.1953125,74258.0390625,74051.15625,74145.921875,74240.0703125,74337.703125,74501.046875,0.0
1762651844.7552726,73282.4296875,73008.21875,73568.984375,73362.09375,73456.7734375,73551.546875,73648.640625,73811.2734375,0.0
1762651844.755324,73000.4453125,72726.5859375,73286.8125,73079.75,73175.0546875,73269.3828125,73366.65625,73529.109375,0.0
1762651844.75819,73927.7734375,73653.3828125,74214.140625,74007.1640625,74102.1171875,74196.0859375,74294.1640625,74457.2421875,0.0
1762651844.7606337,74211.015625,73936.7109375,74497.65625,74290.5859375,74385.625,74479.5,74577.671875,74740.9296875,0.0
1762651844.7628324,73640.421875,73366.296875,73926.96875,73719.9921875,73815.1171875,73909.0859375,74006.984375,74169.6171875,0.0
1762651844.7657833,73128.1171875,72854.0859375,73414.484375,73207.328125,73302.90625,73397.0546875,73494.1484375,73656.8671875,0.0
1762651844.7658591,73984.8125,73710.15625,74271.5390625,74064.03125,74159.25,74253.2109375,74351.203125,74514.28125,0.0
1762651844.770642,74424.25,74150.0390625,74711.2421875,74503.8203125,74598.859375,74692.6484375,74790.8203125,74954.609375,0.0
1762651844.773379,73989.5546875,73715.6953125,74276.4609375,74068.9453125,74164.34375,74258.578125,74356.125,74519.2890625,0.0
1762651844.7759323,73307.5546875,73033.2578125,73594.375,73386.4140625,73482.34375,73576.4921875,73673.859375,73836.578125,0.0
1762651844.776012,74016.4609375,73742.0703125,74303.546875,74095.9453125,74191.34375,74285.578125,74382.8515625,74546.2890625,0.0
1762651844.778099,74612.5390625,74337.6171875,74899.4453125,74692.109375,74787.15625,74881.296875,74979.109375,75142.6328125,0.0
1762651844.785627,74322.953125,74047.9375,74609.5,74402.2578125,74497.5625,74591.4375,74689.34375,74852.7734375,0.0
1762651844.8207498,73542.4296875,73268.125,73829.3359375,73621.734375,73717.3046875,73811.1875,73908.8203125,74071.5390625,0.0
1762651844.8208258,74040.0703125,73765.5,74326.8828125,74119.640625,74214.765625,74308.9140625,74406.3671875,74569.7109375,0.0
1762651844.8229067,74779.375,74504.5390625,75066.28125,74858.765625,74953.71875,75047.6875,75145.765625,75310.09375,0.0
1762651844.8229833,74633.1953125,74358.8046875,74920.4609375,74712.9453125,74807.8046875,74902.1328125,75000.2109375,75164.1796875,0.0
1762651844.825276,73824.0625,73549.578125,74111.0546875,73903.8125,73998.671875,74093.171875,74190.6328125,74354.0625,0.0
1762651844.8282113,74059.734375,73785.4375,74346.640625,74139.484375,74234.53125,74328.765625,74426.3046875,74590.1015625,0.0
1762651844.8306096,74917.953125,74643.296875,75204.953125,74997.6171875,75092.7421875,75186.625,75284.703125,75449.03125,0.0
1762651844.833115,74915.8984375,74641.5078125,75202.984375,74995.828125,75090.5078125,75184.2109375,75282.734375,75446.796875,0.0
1762651844.835601,74145.75,73871.7109375,74432.921875,74225.5,74320.4453125,74414.4140625,74512.3125,74675.84375,0.0
1762651844.838163,74106.9453125,73833.0,74394.03125,74187.3203125,74281.8203125,74375.7890625,74473.6953125,74637.3046875,0.0
1762651844.8382401,75030.4296875,74756.125,75317.6015625,75111.0703125,75205.3984375,75299.0078125,75397.8046875,75561.5078125,0.0
1762651844.8403308,75175.359375,74900.609375,75462.3515625,75255.2890625,75349.609375,75443.3125,75542.28125,75705.984375,0.0
1762651844.840436,74492.375,74217.8125,74779.375,74572.125,74666.5390625,74760.8671875,74858.765625,75022.3828125,0.0
1762651844.8431156,74184.3671875,73909.9765625,74471.0078125,74264.03125,74358.8046875,74453.3046875,74550.7578125,74714.1953125,0.0
1762651844.851762,75109.4609375,74834.625,75396.1015625,75189.390625,75284.078125,75377.953125,75476.3046875,75640.1875,0.0
1762651844.8754916,75404.328125,75129.8515625,75691.1484375,75484.2578125,75579.2109375,75672.640625,75771.34375,75935.3203125,0.0
1762651844.8755426,74843.390625,74568.640625,75129.9375,74922.875,75018.09375,75111.96875,75210.140625,75373.75,0.0
1762651844.8893676,74313.4765625,74039.171875,74600.2890625,74393.046875,74488.265625,74582.5,74680.3984375,74843.8359375,0.0
1762651844.892033,75160.515625,74885.6796875,75447.515625,75240.359375,75334.9453125,75428.9140625,75527.265625,75691.4140625,0.0
1762651844.8943696,75613.8984375,75338.8828125,75900.984375,75693.921875,75788.2421875,75881.9375,75980.6484375,76144.890625,0.0
1762651844.8966424,75191.71875,74917.0625,75478.984375,75271.734375,75366.1484375,75460.296875,75558.375,75722.6171875,0.0
1762651844.8993468,74496.046875,74221.5625,74783.21875,74576.421875,74670.8359375,74764.7109375,74862.7890625,75026.5859375,0.0
1762651844.9019353,75188.234375,74913.484375,75475.140625,75268.4296875,75362.578125,75456.71875,75555.0703125,75719.1328125,0.0
1762651844.904219,75796.9140625,75521.71875,76083.5546875,75876.9375,75971.2578125,76064.953125,76163.75,76328.171875,0.0
1762651844.9066935,75518.140625,75242.9453125,75804.875,75598.0703125,75692.84375,75786.546875,75885.0703125,76049.3125,0.0
1762651844.9067647,74731.984375,74457.2421875,75018.5390625,74811.7421875,74906.5078125,75000.4765625,75098.6484375,75262.4375,0.0
1762651844.9093585,75206.3828125,74931.6328125,75493.203125,75286.578125,75380.9921875,75474.78125,75573.3046875,75737.3671875,0.0
1762651844.912398,75958.4765625,75683.28125,76245.5625,76038.9375,76132.9921875,76226.875,76325.84375,76490.0,0.0
1762651844.9142618,75825.4375,75550.0625,76112.4296875,75905.453125,75999.8671875,76093.7421875,76192.5390625,76356.6015625,0.0
1762651844.9167511,75018.359375,74742.984375,75305.1796875,75098.109375,75192.8828125,75286.7578125,75384.9296875,75548.71875,0.0
1762651844.9193797,75233.203125,74957.7421875,75519.75,75312.7734375,75407.7265625,75501.3359375,75599.859375,75763.921875,0.0
1762651844.9194326,76099.203125,75824.1875,76386.109375,76179.3046875,76273.71875,76366.8828125,76466.3046875,76631.078125,0.0
1762651844.9216697,76109.3046875,75834.8203125,76396.4765625,76189.59375,76283.9140625,76377.2578125,76476.40625,76641.453125,0.0
1762651844.9243803,75341.7421875,75067.3515625,75629.0078125,75421.8515625,75516.4453125,75610.234375,75709.1171875,75873.359375,0.0
1762651844.9244542,75278.0859375,75003.0703125,75564.90625,75357.8359375,75452.6953125,75546.21875,75645.1875,75809.0703125,0.0
1762651844.930683,76208.0078125,75932.546875,76495.09375,76288.1171875,76382.3515625,76476.046875,76575.109375,76739.7109375,0.0
1762651844.9666295,76363.0390625,76087.84375,76650.3046875,76443.5078125,76537.3828125,76631.171875,76730.0546875,76895.1875,0.0
1762651844.9666739,75688.9140625,75413.8046875,75975.7265625,75768.6640625,75863.078125,75956.8671875,76055.75,76220.1640625,0.0
1762651844.9666836,75361.953125,75087.0234375,75648.9453125,75441.96875,75536.296875,75630.171875,75728.875,75893.203125,0.0
1762651844.9720807,76283.0234375,76007.734375,76570.2890625,76363.484375,76457.2734375,76550.8828125,76650.21875,76814.9921875,0.0
1762651844.9721556,76590.2265625,76314.8515625,76877.7578125,76670.6015625,76764.65625,76858.3515625,76957.59375,77122.640625,0.0
1762651844.9744081,76037.5078125,75762.7578125,76324.859375,76118.15625,76212.390625,76305.90625,76404.8828125,76569.65625,0.0
1762651844.9744847,75488.015625,75213.0859375,75775.1875,75568.4765625,75662.890625,75756.59375,75855.03125,76019.359375,0.0
1762651844.976622,76322.625,76047.8828125,76610.4296875,76403.359375,76497.59375,76591.1171875,76690.0,76854.9609375,0.0
1762651844.9791389,76788.8828125,76514.046875,77076.7734375,76869.53125,76963.8515625,77057.28125,77156.3515625,77321.84375,0.0
1762651844.982211,76379.9375,76105.1015625,76667.46875,76460.4921875,76554.640625,76648.15625,76746.953125,76912.1796875,0.0
1762651844.9878933,75673.7109375,75398.9609375,75960.9765625,75754.0,75848.3203125,75941.9296875,76040.8203125,76205.4140625,0.0
1762651844.990732,76350.5234375,76075.59375,76638.1484375,76430.9921875,76524.953125,76619.015625,76718.1640625,76882.9453125,0.0
1762651844.992892,76971.8984375,76696.9765625,77259.5234375,77052.4609375,77146.2421875,77240.3046875,77339.453125,77504.5859375,0.0
1762651844.995362,76706.359375,76431.703125,76993.984375,76787.1875,76881.15625,76974.9375,77074.0078125,77239.046875,0.0
1762651844.9981039,75913.859375,75639.109375,76200.9453125,75994.6796875,76089.0078125,76182.3515625,76281.0546875,76445.921875,0.0
1762651845.0006752,76365.3671875,76090.171875,76652.1796875,76446.0078125,76540.0625,76633.4921875,76732.2890625,76897.3359375,0.0
1762651845.0007496,77127.0234375,76851.7421875,77414.5546875,77207.84375,77302.171875,77395.0625,77494.84375,77659.890625,0.0
1762651845.00315,77006.9453125,76731.84375,77294.6640625,77087.953125,77181.7421875,77274.9921875,77374.5,77539.6328125,0.0
1762651845.003224,76200.40625,75925.3046875,76487.4921875,76280.9609375,76374.84375,76468.09375,76567.421875,76732.0234375,0.0
1762651845.0656796,76387.5390625,76112.609375,76674.8046875,76468.0,76562.328125,76655.3984375,76754.9140625,76919.7734375,0.0
1762651845.0733569,77257.734375,76982.8984375,77544.8203125,77338.46875,77432.34375,77525.6015625,77625.46875,77790.78125,0.0
1762651845.07345,77279.015625,77004.0859375,77566.28125,77359.8359375,77453.8046875,77547.328125,77646.7421875,77812.1484375,0.0
1762651845.073472,76518.875,76244.0390625,76805.78125,76598.984375,76693.578125,76786.921875,76886.15625,77051.203125,0.0
1762651845.0766509,76432.6875,76157.8515625,76719.6875,76512.796875,76607.296875,76700.640625,76799.96875,76964.9296875,0.0
1762651845.076733,77359.65625,77084.015625,77646.921875,77439.5859375,77533.9140625,77627.5234375,77727.125,77892.34375,0.0
1762651845.07677,77524.703125,77248.8828125,77811.703125,77604.90625,77698.9609375,77792.390625,77892.2578125,78057.390625,0.0
1762651845.0806472,76859.875,76584.6796875,77146.6953125,76940.0703125,77034.21875,77127.6484375,77227.515625,77392.1171875,0.0
1762651845.080728,76513.9609375,76238.9453125,76801.046875,76594.0703125,76688.65625,76782.09375,76881.421875,77045.6640625,0.0
1762651845.0807643,77428.953125,77153.3984375,77716.390625,77509.859375,77603.7421875,77696.9921875,77796.6796875,77961.6328125,0.0
1762651845.0843513,77746.7890625,77471.5078125,78034.328125,77827.796875,77921.5859375,78014.921875,78114.34375,78279.921875,0.0
1762651845.084426,77205.078125,76929.609375,77492.25,77285.71875,77379.59375,77472.8515625,77572.4453125,77737.671875,0.0
1762651845.0844536,76643.421875,76368.1328125,76930.234375,76723.7109375,76817.4921875,76911.1015625,77010.5234375,77175.3046875,0.0
1762651845.0867476,77469.0078125,77193.359375,77756.1796875,77549.6484375,77643.3515625,77736.6015625,77836.1953125,78001.6875,0.0
1762651845.0891464,77943.6640625,77668.203125,78231.2890625,78024.4921875,78118.28125,78211.3515625,78311.125,78477.15625,0.0
1762651845.105375,77541.9609375,77266.765625,77829.3125,77622.6015625,77716.3046875,77809.6484375,77909.421875,78075.2734375,0.0
1762651845.1081,76827.7734375,76552.8515625,77115.1328125,76908.421875,77002.296875,77095.640625,77195.2421875,77360.5546875,0.0
1762651845.110775,77485.546875,77210.4375,77772.8125,77566.4609375,77660.6015625,77753.2265625,77853.2734375,78018.859375,0.0
1762651845.113212,78116.84375,77841.828125,78404.6484375,78198.1171875,78292.171875,78384.796875,78485.203125,78650.875,0.0
1762651845.1133041,77861.765625,77586.3046875,78149.3046875,77942.7734375,78036.5625,78129.546875,78229.5859375,78395.2578125,0.0
1762651845.1153903,77066.671875,76791.5703125,77353.9375,77147.5859375,77241.640625,77334.890625,77434.1328125,77599.5390625,0.0
1762651845.1183736,77499.2265625,77223.7578125,77786.578125,77580.140625,77673.75,77767.1796875,77866.7734375,78032.4453125,0.0
1762651845.122805,78270.0,77995.078125,78557.625,78351.71875,78444.8828125,78538.046875,78638.265625,78804.4765625,0.0
1762651845.1253264,78159.2265625,77884.5703125,78447.203125,78241.2109375,78334.28125,78427.71875,78527.5859375,78693.609375,0.0
1762651845.1278615,77352.0625,77077.2265625,77639.59375,77433.1484375,77526.671875,77620.28125,77719.96875,77885.1953125,0.0
1762651845.1304572,77517.640625,77242.5390625,77805.265625,77598.9140625,77692.4296875,77785.59375,77885.4609375,78051.046875,0.0
1762651845.1331704,78395.7109375,78120.3359375,78683.328125,78477.0703125,78570.3203125,78663.484375,78763.703125,78929.734375,0.0
1762651845.1356316,78424.671875,78148.9453125,78711.7578125,78505.5,78598.84375,78692.09375,78791.9609375,78958.2578125,0.0
1762651845.1381,77669.453125,77393.6328125,77956.453125,77750.1875,77843.890625,77937.140625,78036.5625,78202.5,0.0
1762651845.140592,77557.25,77281.609375,77844.515625,77638.1640625,77731.6796875,77824.9296875,77924.53125,78090.46875,0.0
1762651845.1406684,78483.859375,78208.671875,78771.75,78565.3125,78658.7421875,78751.8125,78851.859375,79018.0703125,0.0
1762651845.1456733,78662.140625,78387.03125,78950.2109375,78743.9453125,78836.9296875,78930.0,79030.046875,79196.5234375,0.0
1762651845.1481488,78004.375,77729.0,78291.8203125,78085.734375,78178.8046875,78272.328125,78372.015625,78538.046875,0.0
1762651845.1482232,77636.4609375,77360.9140625,77923.546875,77717.375,77810.71875,77904.6875,78003.8359375,78169.328125,0.0
1762651845.1507275,78545.734375,78270.1796875,78832.90625,78626.828125,78719.984375,78813.5078125,78913.4609375,79079.2265625,0.0
1762651845.1531336,78875.5546875,78600.1796875,79163.0859375,78957.1796875,79049.984375,79143.1484375,79243.640625,79409.7578125,0.0
1762651845.1532104,78346.53125,78071.0703125,78634.0703125,78427.71875,78521.1484375,78614.3046875,78714.4453125,78880.3828125,0.0
1762651845.155713,77765.4765625,77490.1015625,78052.828125,77846.390625,77939.9140625,78033.609375,78132.9375,78298.96875,0.0
1762651845.1593854,78577.203125,78301.828125,78864.5546875,78658.7421875,78751.4609375,78844.9765625,78944.9375,79111.234375,0.0
1762651845.1966455,79067.15625,78791.15625,79354.7734375,79148.78125,79241.6796875,79335.015625,79435.15625,79601.359375,0.0
1762651845.196715,78679.125,78403.21875,78966.390625,78760.3125,78853.46875,78946.6328125,79047.0390625,79212.9765625,0.0
1762651845.199358,77954.6640625,77678.9296875,78241.65625,78035.21875,78128.6484375,78222.078125,78321.765625,78487.8828125,0.0
1762651845.199432,78594.28125,78319.0859375,78882.53125,78675.7265625,78768.8046875,78862.4140625,78962.0078125,79128.578125,0.0
1762651845.2018545,79238.1015625,78962.7265625,79525.9921875,79320.0,79412.625,79505.78125,79606.3671875,79772.84375,0.0
1762651845.2043543,78992.5859375,78717.21875,79280.2109375,79074.125,79166.6640625,79259.9140625,79360.6796875,79526.5234375,0.0
1762651845.2067444,78190.0703125,77914.96875,78477.515625,78270.984375,78364.1484375,78457.6640625,78557.8046875,78723.3828125,0.0
1762651845.2093549,78599.734375,78324.359375,78887.359375,78680.9140625,78774.1640625,78867.5078125,78967.46875,79133.765625,0.0
1762651845.2120337,79382.3125,79106.8515625,79669.9375,79463.671875,79557.1953125,79650.0859375,79750.3125,79917.1484375,0.0
1762651845.2141104,79282.4453125,79007.25,79570.4296875,79364.078125,79457.328125,79550.6640625,79650.984375,79817.28125,0.0
1762651845.2142365,78476.4453125,78201.9609375,78764.8671875,78558.4296875,78651.9453125,78745.0234375,78845.0703125,79011.0078125,0.0
1762651845.2167397,78617.4375,78342.328125,78905.328125,78699.15625,78792.40625,78885.5703125,78985.796875,79151.8203125,0.0
1762651845.2192683,79500.5078125,79224.8671875,79788.21875,79582.046875,79675.296875,79768.1015625,79868.953125,80035.1640625,0.0
1762651845.221854,79545.03125,79269.8359375,79832.921875,79626.3046875,79719.734375,79812.71875,79913.125,80079.8671875,0.0
1762651845.2219307,78798.9296875,78524.0078125,79087.0,78880.296875,78973.7265625,79066.8828125,79167.2890625,79333.5,0.0
1762651845.2241435,78663.9296875,78388.5546875,78951.8203125,78745.5546875,78838.71875,78931.609375,79032.015625,79198.3125,0.0
1762651845.2277691,79594.2109375,79318.390625,79881.4765625,79675.65625,79768.734375,79861.8046875,79962.1171875,80128.953125,0.0
1762651845.2615323,79784.109375,79508.375,80071.640625,79865.46875,79958.8125,80052.0625,80152.640625,80319.4765625,0.0
1762651845.2616007,79136.0,78860.4453125,79423.6171875,79217.265625,79310.7890625,79403.59375,79504.3515625,79670.828125,0.0
1762651845.263894,78747.078125,78471.7890625,79034.7890625,78828.4375,78922.046875,79015.03125,79115.4375,79281.90625,0.0
1762651845.2639108,79649.640625,79374.265625,79937.4453125,79731.265625,79824.609375,79917.59375,80018.265625,80185.3671875,0.0
1762651845.2665668,79994.484375,79718.75,80282.4609375,80076.109375,80169.2734375,80262.4375,80363.375,80529.8515625,0.0
1762651845.2689817,79476.1875,79200.90625,79763.90625,79557.90625,79650.8046875,79744.140625,79844.546875,80010.9375,0.0
1762651845.2714794,78882.3515625,78606.9765625,79169.703125,78963.6171875,79056.78125,79150.125,79250.53125,79416.1953125,0.0
1762651845.2739785,79682.09375,79406.453125,79969.71875,79764.078125,79856.7109375,79949.8671875,80050.6328125,80216.8359375,0.0
1762651845.276774,80183.671875,79908.65625,80471.9140625,80266.1015625,80358.28125,80451.625,80552.7421875,80719.484375,0.0
1762651845.279538,79806.28125,79531.1796875,80094.53125,79888.359375,79980.890625,80074.1484375,80175.265625,80341.828125,0.0
1762651845.2819493,79071.0,78795.4453125,79358.6171875,79152.5390625,79245.1640625,79338.328125,79439.0859375,79605.5625,0.0
1762651845.2841258,79693.0,79417.453125,79981.0703125,79775.34375,79867.6171875,79960.8671875,80061.8046875,80228.375,0.0
1762651845.2842033,80351.0390625,80075.484375,80639.109375,80433.46875,80525.828125,80618.3671875,80720.0234375,80886.8515625,0.0
1762651845.2869973,80119.1171875,79843.65625,80407.09375,80200.7421875,80293.546875,80386.3515625,80487.921875,80654.3984375,0.0
1762651845.2891903,79314.3671875,79038.9921875,79601.984375,79395.8125,79488.7109375,79581.8671875,79682.71875,79849.109375,0.0
1762651845.289243,79700.3359375,79424.421875,79987.78125,79782.0546875,79874.5859375,79967.6640625,80068.421875,80235.2578125,0.0
1762651845.2966404,80493.1953125,80217.2890625,80781.171875,80575.359375,80667.8046875,80760.8828125,80862.1796875,81029.1015625,0.0
1762651845.3044248,80406.109375,80130.828125,80694.1796875,80488.546875,80581.0859375,80674.0625,80775.2734375,80942.015625,0.0
1762651845.3045022,79603.234375,79327.953125,79890.859375,79685.1328125,79777.8515625,79871.015625,79972.1328125,80138.3359375,0.0
1762651845.3406005,79721.34375,79446.1484375,80009.328125,79803.328125,79896.1328125,79989.390625,80090.4140625,80256.8046875,0.0
1762651845.340676,80612.109375,80336.2890625,80900.0859375,80694.0,80786.8984375,80879.8828125,80981.0859375,81148.28125,0.0
1762651845.3431463,80668.34375,80392.609375,80956.5,80750.5078125,80843.2265625,80936.4765625,81037.5078125,81205.0546875,0.0
1762651845.343222,79927.609375,79652.5,80216.03125,80010.1328125,80102.6640625,80196.0078125,80296.6796875,80463.6015625,0.0
1762651845.3454876,79770.515625,79495.4140625,80058.5859375,79852.7734375,79945.21875,80038.6484375,80139.59375,80306.3359375,0.0
1762651845.350798,80700.0859375,80424.7109375,80988.0625,80782.6953125,80874.6953125,80967.6796875,81069.2421875,81236.6171875,0.0
1762651845.3533323,80902.4140625,80626.859375,81190.390625,80984.9375,81076.9296875,81169.828125,81271.484375,81439.03125,0.0
1762651845.355631,80266.3671875,79991.0,80554.4375,80348.625,80441.1640625,80534.140625,80635.0859375,80802.09375,0.0
1762651845.3580918,79860.4609375,79585.0859375,80148.3515625,79942.625,80035.0703125,80128.4140625,80229.0,80396.1015625,0.0
1762651845.360654,80757.0390625,80481.75,81045.28125,80839.46875,80931.734375,81025.078125,81126.015625,81293.65625,0.0
1762651845.363089,81113.9453125,80838.9296875,81402.640625,81196.7421875,81288.6484375,81381.9921875,81483.1953125,81651.015625,0.0
1762651845.3684433,80608.0859375,80332.796875,80896.6875,80690.78125,80782.6953125,80876.125,80977.3359375,81144.5234375,0.0
1762651845.3685443,80000.0234375,79725.1875,80288.453125,80082.546875,80175.0859375,80268.515625,80369.2734375,80536.0234375,0.0
1762651845.370388,80786.2734375,80510.8046875,81074.1640625,80868.4375,80961.2421875,81054.046875,81155.2578125,81322.7109375,0.0
1762651845.373122,81299.6484375,81024.0078125,81587.71875,81381.8984375,81474.4375,81567.2421875,81668.71875,81836.625,0.0
1762651845.3731737,80936.203125,80660.5625,81224.3671875,81018.28125,81110.90625,81204.15625,81305.28125,81472.828125,0.0
1762651845.375409,80191.71875,79916.25,80479.875,80273.96875,80366.6875,80459.6640625,80560.6953125,80727.7109375,0.0
1762651845.3777626,80795.75,80520.2890625,81084.171875,80878.2734375,80970.5390625,81063.4296875,81164.734375,81332.1015625,0.0
1762651845.3805947,81463.2578125,81187.6171875,81751.5078125,81545.875,81637.6953125,81730.5,81832.3359375,81999.703125,0.0
1762651845.4094725,81244.125,80968.3046875,81532.375,81326.6484375,81418.828125,81511.984375,81613.375,81780.8359375,0.0
1762651845.4095488,80439.1953125,80163.640625,80727.4453125,80521.1796875,80613.8046875,80707.234375,80808.0859375,80975.3671875,0.0
1762651845.444034,80804.5078125,80528.6875,81092.7578125,80886.671875,80979.125,81072.28125,81173.3125,81340.859375,0.0
1762651845.4440784,81604.8828125,81329.1484375,81893.0390625,81687.40625,81779.3125,81872.4765625,81974.046875,82142.0390625,0.0
1762651845.4465408,81528.3515625,81252.7109375,81816.59375,81611.40625,81703.046875,81796.125,81897.6875,82065.7734375,0.0
1762651845.4491277,80730.125,80454.484375,81018.375,80813.09375,80905.09375,80998.078125,81099.375,81266.7421875,0.0
1762651845.4516873,80822.65625,80547.1953125,81110.8203125,80905.359375,80997.453125,81090.4375,81191.9140625,81359.28125,0.0
1762651845.4539604,81715.2109375,81439.8359375,82003.546875,81798.5390625,81890.1796875,81983.34375,82084.90625,82252.7265625,0.0
1762651845.456437,81782.1796875,81506.625,82070.3359375,81865.328125,81957.1484375,82049.953125,82151.875,82319.3359375,0.0
1762651845.4589658,81047.515625,80771.609375,81335.3203125,81129.953125,81222.21875,81314.84375,81416.765625,81583.9609375,0.0
1762651845.4616125,80864.953125,80588.859375,81152.9296875,80947.46875,81039.3828125,81132.2734375,81233.9296875,81400.9453125,0.0
1762651845.4639335,81789.8671875,81514.046875,82077.84375,81873.015625,81964.5625,82057.640625,82159.3828125,82326.9296875,0.0
1762651845.466373,82002.8359375,81726.7421875,82290.7265625,82085.625,82177.1796875,82270.4296875,82372.265625,82540.171875,0.0
1762651845.46897,81373.765625,81098.03125,81662.1953125,81456.375,81548.6484375,81641.453125,81743.4609375,81911.0078125,0.0
1762651845.4715369,80942.640625,80666.6484375,81230.359375,81024.984375,81117.078125,81210.0625,81311.71875,81479.0859375,0.0
1762651845.4739673,81829.0234375,81552.671875,82116.6484375,81911.9921875,82003.28125,82096.53125,82198.1875,82366.09375,0.0
1762651845.4762404,82195.0546875,81919.4140625,82483.0390625,82278.203125,82369.578125,82462.921875,82564.578125,82732.6640625,0.0
1762651845.4902775,81699.0234375,81423.203125,81986.828125,81781.640625,81873.1953125,81966.625,82068.1875,82235.9140625,0.0
1762651845.4928365,81070.765625,80794.9453125,81358.4765625,81153.2890625,81244.9296875,81338.2734375,81439.75,81607.203125,0.0
1762651845.4928565,81839.3046875,81563.3984375,82127.375,81922.1875,82013.7421875,82106.8984375,82208.6484375,82376.375,0.0
1762651845.4951634,82366.71875,82090.8984375,82655.0546875,82449.6015625,82541.421875,82634.40625,82736.59375,82904.4140625,0.0
1762651845.49518,82012.3125,81736.578125,82301.1796875,82095.28125,82187.1875,82279.9921875,82382.1875,82549.9140625,0.0
1762651845.4978445,81257.4453125,80981.625,81545.875,81339.8828125,81431.96875,81525.21875,81626.6953125,81794.515625,0.0
1762651845.4978597,81840.46875,81564.734375,82128.984375,81923.078125,82015.078125,82108.6015625,82209.984375,82378.0703125,0.0
1762651845.5002089,82517.640625,82242.265625,82806.5078125,82600.96875,82692.609375,82785.59375,82887.78125,83055.8671875,0.0
1762651845.5027895,82307.3515625,82032.15625,82595.8671875,82390.765625,82482.3203125,82575.3984375,82677.40625,82845.046875,0.0
1762651845.502806,81496.0703125,81220.5234375,81784.4140625,81578.7734375,81670.6875,81763.84375,81865.6796875,82032.78125,0.0
1762651845.506441,81834.8359375,81558.9296875,82122.90625,81917.4453125,82008.9140625,82102.0703125,82204.0859375,82371.8125,0.0
1762651845.5064569,82643.703125,82367.7890625,82931.953125,82727.03125,82818.2265625,82911.1171875,83013.6640625,83182.0234375,0.0
1762651845.506464,82578.609375,82302.7890625,82866.953125,82661.9375,82753.2265625,82846.390625,82948.4921875,83117.109375,0.0
1762651845.5151896,81781.015625,81504.921875,82069.6171875,81863.625,81955.7109375,82048.875,82150.625,82318.53125,0.0
1762651845.517634,81845.8359375,81569.7421875,82134.3515625,81928.8046875,82020.4453125,82113.6953125,82215.4453125,82383.2578125,0.0
1762651845.5176537,82744.109375,82468.1953125,83032.625,82827.609375,82918.625,83011.703125,83114.34375,83282.515625,0.0
1762651845.5201845,82823.0546875,82547.3203125,83112.015625,82906.5546875,82997.75,83091.09375,83193.375,83361.640625,0.0
1762651845.5227983,82093.3125,81817.3125,82381.7421875,82176.28125,82267.921875,82361.171875,82462.921875,82631.09375,0.0
1762651845.5251255,81887.6796875,81611.765625,82176.1015625,81970.46875,82062.109375,82155.2734375,82257.4609375,82424.921875,0.0
1762651845.5569441,82814.203125,82538.203125,83102.984375,82897.796875,82988.8984375,83081.703125,83184.2578125,83352.1640625,0.0
1762651845.5570903,83041.5625,82765.65625,83329.9921875,83124.9765625,83216.4453125,83309.4296875,83411.53125,83579.8828125,0.0
1762651845.58769,82423.578125,82147.4921875,82712.0078125,82506.640625,82598.28125,82691.4453125,82793.1015625,82961.2734375,0.0
1762651845.5877528,81970.828125,81695.09375,82259.5234375,82053.703125,82145.4375,82238.6875,82340.34375,82508.4296875,0.0
1762651845.5914135,82852.2890625,82577.0,83141.1640625,82935.8828125,83027.078125,83120.2421875,83222.34375,83390.875,0.0
1762651845.5914314,83234.1484375,82958.328125,83522.6640625,83317.3828125,83408.7578125,83501.6484375,83604.2890625,83773.265625,0.0
1762651845.5914392,82749.46875,82473.2890625,83037.8984375,82832.3515625,82923.8125,83016.8828125,83119.2578125,83287.7890625,0.0
1762651845.591446,82109.140625,81833.2265625,82397.3828125,82192.375,82283.65625,82376.8203125,82478.7421875,82646.828125,0.0
1762651845.5939004,82866.6796875,82590.859375,83155.5546875,82950.7265625,83041.828125,83134.453125,83236.9140625,83405.1796875,0.0
1762651845.593916,83408.1328125,83132.3984375,83697.09375,83492.171875,83583.0078125,83675.90625,83778.453125,83946.8984375,0.0
1762651845.5963733,83068.5625,82793.0078125,83357.171875,83151.890625,83243.171875,83336.3359375,83438.890625,83606.96875,0.0
1762651845.5988724,82304.2265625,82028.9375,82592.828125,82387.546875,82479.015625,82572.1796875,82674.28125,82842.2734375,0.0
1762651845.6013749,82864.625,82589.0703125,83153.5859375,82948.3125,83039.6875,83132.7578125,83234.953125,83403.390625,0.0
1762651845.603845,83555.203125,83279.7421875,83844.171875,83639.4296875,83730.171875,83823.515625,83925.796875,84094.328125,0.0
1762651845.6063695,83360.2109375,83084.390625,83648.6328125,83444.0703125,83535.0,83628.25,83730.3515625,83898.9765625,0.0
1762651845.6089325,82545.53125,82269.625,82834.046875,82629.125,82720.59375,82813.578125,82915.765625,83083.9453125,0.0
1762651845.616369,82861.40625,82585.5859375,83149.921875,82945.1796875,83036.1953125,83129.09375,83231.734375,83400.171875,0.0
1762651845.6188772,83682.7890625,83407.4140625,83971.75,83767.1015625,83857.7578125,83951.1875,84053.7421875,84222.453125,0.0
1762651845.618894,83629.3203125,83353.953125,83918.1953125,83713.2734375,83804.5625,83897.3671875,84000.1875,84168.5390625,0.0
1762651845.6213796,82833.421875,82557.8671875,83122.03125,82916.8359375,83008.390625,83101.1953125,83203.5703125,83372.0078125,0.0
1762651845.623917,82874.8203125,82598.7265625,83162.890625,82957.875,83049.25,83142.0546875,83244.78125,83413.140625,0.0
1762651845.6289363,83779.078125,83502.90625,84067.59375,83862.6796875,83953.6015625,84046.40625,84149.2265625,84318.203125,0.0
1762651845.6289651,83870.0078125,83593.828125,84158.6171875,83953.6953125,84044.53125,84136.9765625,84240.421875,84409.3125,0.0
1762651845.6313791,83150.1953125,82873.921875,83438.7109375,83233.34375,83324.984375,83417.609375,83520.3359375,83688.78125,0.0
1762651845.6338732,82915.3203125,82639.234375,83203.8359375,82998.203125,83089.5703125,83182.5546875,83285.109375,83453.28125,0.0
1762651845.6364167,83836.3046875,83560.390625,84125.0859375,83919.8984375,84010.734375,84103.625,84206.625,84375.421875,0.0
1762651845.63885,84079.9375,83803.9375,84368.6328125,84163.796875,84254.8125,84347.4375,84450.2578125,84619.1484375,0.0
1762651845.64137,83472.328125,83196.4140625,83760.9296875,83556.1015625,83646.9375,83739.828125,83842.5625,84011.09375,0.0
1762651845.643881,83003.921875,82728.1875,83292.53125,83087.515625,83178.3515625,83271.515625,83373.9765625,83542.2421875,0.0
1762651845.643901,83873.5859375,83597.8515625,84162.546875,83957.4453125,84048.2890625,84141.359375,84244.0859375,84412.6171875,0.0
1762651845.646423,84275.0234375,83999.109375,84564.34375,84359.5078125,84449.71875,84542.796875,84645.8828125,84814.5,0.0
1762651845.6554132,83800.359375,83524.2734375,84089.140625,83884.2265625,83974.7890625,84067.8671875,84170.6796875,84339.3046875,0.0
1762651845.6554563,83145.2734375,82869.1875,83433.96875,83228.6015625,83319.9765625,83412.78125,83515.1484375,83683.859375,0.0
1762651845.6613889,83885.3828125,83609.7421875,84174.2578125,83969.4296875,84060.265625,84153.515625,84256.15625,84424.78125,0.0
1762651845.6614227,84443.9140625,84168.4453125,84733.140625,84528.3984375,84619.4140625,84712.3984375,84815.3046875,84983.9296875,0.0
1762651845.6955009,84114.625,83839.0703125,84403.6796875,84198.6640625,84289.859375,84382.6640625,84485.6640625,84654.109375,0.0
1762651845.7015564,83349.125,83073.5703125,83638.0859375,83432.8046875,83524.09375,83617.078125,83719.890625,83888.0703125,0.0
1762651845.7016294,83896.296875,83620.921875,84185.8828125,83980.515625,84071.4453125,84164.15625,84267.15625,84435.6875,0.0
1762651845.7016456,84600.1015625,84324.5546875,84889.515625,84684.7734375,84775.1640625,84868.4140625,84971.4140625,85140.3046875,0.0
1762651845.70387,84415.5703125,84139.75,84704.53125,84500.1484375,84590.71875,84683.7890625,84786.7890625,84955.40625,0.0
1762651845.7065246,83602.4140625,83326.953125,83891.1953125,83686.546875,83777.5625,83870.3671875,83973.09375,84141.71875,0.0
1762651845.7089467,83892.625,83617.5234375,84181.859375,83977.203125,84067.953125,84160.7578125,84263.7578125,84432.1953125,0.0
1762651845.711498,84722.1484375,84446.7734375,85011.5546875,84807.2578125,84897.203125,84990.3671875,85093.6328125,85262.34375,0.0
1762651845.7138991,84684.59375,84408.953125,84974.0078125,84768.90625,84859.4765625,84952.546875,85055.8984375,85224.7890625,0.0
1762651845.7139144,83895.84375,83620.0234375,84184.9921875,83979.6171875,84070.7265625,84163.6171875,84266.703125,84434.8828125,0.0
1762651845.7165353,83910.6015625,83634.8671875,84199.3828125,83994.375,84085.390625,84178.28125,84281.1875,84449.6328125,0.0
1762651845.7226424,84817.1875,84541.546875,85106.328125,84902.03125,84992.15625,85085.3203125,85188.578125,85357.6484375,0.0
1762651845.7226512,84921.2578125,84645.609375,85210.578125,85005.7421875,85096.4921875,85189.3828125,85292.6484375,85461.8125,0.0
1762651845.7250912,84212.2578125,83936.6171875,84501.21875,84296.296875,84387.2265625,84480.1171875,84582.8515625,84751.7421875,0.0
1762651845.7276442,83957.4453125,83681.4453125,84246.3203125,84041.1328125,84132.2421875,84225.3125,84327.6796875,84496.484375,0.0
1762651845.7276628,84879.234375,84603.234375,85168.109375,84963.546875,85054.0234375,85147.0078125,85250.1796875,85419.0703125,0.0
1762651845.7301307,85135.828125,84860.1015625,85424.6171875,85219.9609375,85310.8046875,85403.4296875,85506.8671875,85676.03125,0.0
1762651845.7340312,84539.7578125,84264.1171875,84828.71875,84623.796875,84714.546875,84807.0859375,84910.6171875,85079.5078125,0.0
1762651845.767917,84050.4296875,83774.875,84339.21875,84134.5625,84225.3125,84318.1171875,84421.203125,84590.0,0.0
1762651845.7679737,84915.9765625,84640.25,85204.9453125,85000.6484375,85090.953125,85184.109375,85287.5546875,85456.4453125,0.0
1762651845.806437,85325.4609375,85050.0,85614.6953125,85410.3984375,85500.609375,85593.59375,85697.125,85866.375,0.0
1762651845.8127625,84866.5390625,84590.984375,85155.4140625,84951.203125,85041.1484375,85134.3125,85237.578125,85406.734375,0.0
1762651845.8127909,84196.5234375,83920.96875,84485.3984375,84280.921875,84371.1328125,84464.3828125,84567.1171875,84736.1796875,0.0
1762651845.8151565,84920.6328125,84645.078125,85209.6796875,85005.4765625,85095.6875,85188.40625,85292.1171875,85460.9140625,0.0
1762651845.8176105,85488.6328125,85213.34375,85777.859375,85573.75,85663.515625,85756.765625,85860.296875,86029.6328125,0.0
1762651845.8201296,85172.9375,84897.203125,85461.9921875,85257.515625,85347.8125,85440.890625,85544.6015625,85713.21875,0.0
1762651845.8227262,84393.9296875,84118.203125,84682.2734375,84477.9765625,84568.7265625,84661.4375,84764.7890625,84932.96875,0.0
1762651845.8378727,84913.65625,84637.8359375,85202.2578125,84997.7890625,85088.4453125,85181.0703125,85284.515625,85453.4921875,0.0
1762651845.840272,85628.2890625,85352.734375,85917.515625,85712.8671875,85803.2578125,85896.328125,85999.59375,86169.1953125,0.0
1762651845.8426175,85456.53125,85180.890625,85745.765625,85541.1171875,85631.59375,85724.484375,85827.84375,85997.0859375,0.0
1762651845.8451335,84642.0390625,84366.3046875,84931.0859375,84726.2578125,84817.09375,84909.71875,85012.984375,85181.96875,0.0
1762651845.8476436,84908.203125,84632.5625,85197.4296875,84992.8671875,85082.9921875,85176.2421875,85279.5078125,85448.6640625,0.0
1762651845.8501108,85743.6171875,85468.421875,86033.03125,85828.828125,85919.0390625,86012.0234375,86115.8203125,86284.9765625,0.0
1762651845.8525867,85714.7421875,85439.8125,86004.2421875,85800.0390625,85890.25,85983.234375,86086.671875,86256.1875,0.0
1762651845.8551042,84929.8359375,84654.640625,85219.0703125,85014.7734375,85104.8046875,85198.0625,85301.1484375,85470.484375,0.0
1762651845.8576145,84920.1796875,84644.6328125,85209.1484375,85004.4921875,85094.8828125,85187.953125,85291.4921875,85460.2890625,0.0
1762651845.8601546,85830.078125,85554.078125,86119.1328125,85915.015625,86005.1328125,86097.7578125,86201.828125,86371.2578125,0.0
1762651845.862609,85946.0390625,85670.3984375,86235.1796875,86031.3359375,86121.0078125,86213.9921875,86318.0625,86487.3046875,0.0
1762651845.865158,85241.421875,84965.421875,85530.1171875,85326.1796875,85416.125,85509.109375,85612.8203125,85781.8828125,0.0
1762651845.8651755,84963.09375,84687.0078125,85251.6171875,85047.8515625,85138.0703125,85230.78125,85334.4921875,85503.3828125,0.0
1762651845.8688812,85882.6484375,85606.6484375,86171.609375,85968.03125,86057.9765625,86150.6015625,86254.7578125,86424.0078125,0.0
1762651845.8689,86148.453125,85872.6328125,86437.59375,86233.9296875,86323.78125,86416.2265625,86520.7421875,86689.9921875,0.0
1762651845.8689084,85560.6015625,85284.6953125,85849.5703125,85645.5390625,85735.5703125,85828.5546875,85932.359375,86101.6953125,0.0
1762651845.871232,85050.0,84774.0,85338.7890625,85134.578125,85225.2421875,85317.8671875,85421.484375,85590.109375,0.0
1762651845.8763714,85902.765625,85626.9453125,86191.7265625,85988.328125,86078.1796875,86170.8046875,86274.875,86443.9453125,0.0
1762651845.8788643,86325.03125,86049.03125,86613.90625,86410.59375,86500.2734375,86592.8046875,86697.1484375,86866.75,0.0
1762651845.8813622,85875.765625,85600.125,86164.7265625,85961.0546875,86050.9140625,86143.8984375,86247.6953125,86417.03125,0.0
1762651845.8852167,85191.3515625,84915.4453125,85480.3203125,85276.0234375,85366.140625,85459.578125,85562.75,85731.8203125,0.0
1762651845.8852353,85901.2421875,85625.3359375,86190.5625,85986.359375,86076.484375,86169.8203125,86273.0859375,86442.6953125,0.0
1762651845.8852432,86481.046875,86205.40625,86770.1875,86566.609375,86656.9140625,86749.2734375,86853.3359375,87022.859375,0.0
1762651845.8876605,86175.1015625,85899.28125,86463.796875,86260.3046875,86350.421875,86443.3203125,86547.1171875,86716.546875,0.0
1762651845.8876803,85388.671875,85112.671875,85677.28125,85473.25,85563.734375,85656.5390625,85760.1640625,85929.5859375,0.0
1762651845.890138,85888.28125,85612.28125,86177.15625,85973.0390625,86063.515625,86156.140625,86259.9453125,86429.375,0.0
1762651845.8927753,86615.9609375,86340.140625,86904.75,86701.171875,86791.2890625,86884.0078125,86987.984375,87157.859375,0.0
1762651845.895116,86454.140625,86178.4921875,86742.921875,86539.1640625,86629.375,86722.1796875,86826.0703125,86995.8515625,0.0
1762651845.8951304,85636.421875,85360.6875,85924.9375,85721.0859375,85811.3046875,85904.375,86007.90625,86177.3359375,0.0
1762651845.8976078,85874.6015625,85598.9609375,86163.5625,85959.8984375,86050.015625,86143.0,86246.7109375,86416.140625,0.0
1762651845.9001498,86719.2265625,86443.3203125,87008.546875,86804.703125,86894.9140625,86987.6328125,87091.4296875,87261.0390625,0.0
1762651845.902609,86703.40625,86427.765625,86992.4609375,86788.6953125,86879.0859375,86971.625,87075.3359375,87245.2109375,0.0
1762651845.9051003,85921.453125,85645.71875,86210.1484375,86006.296875,86096.5078125,86189.7578125,86293.203125,86462.6328125,0.0
1762651845.944138,85884.6171875,85608.5234375,86173.3984375,85969.375,86059.4921875,86152.65625,86256.1875,86425.796875,0.0
1762651845.9441807,86797.90625,86522.0859375,87087.140625,86883.46875,86973.1484375,87066.125,87170.2890625,87340.0703125,0.0
1762651845.9441895,86928.0859375,86652.265625,87217.671875,87014.09375,87103.6796875,87196.484375,87300.8203125,87470.515625,0.0
1762651845.9463575,86233.2109375,85957.2109375,86522.0859375,86318.4140625,86408.6328125,86501.1640625,86605.0546875,86774.6640625,0.0
1762651845.9489808,85931.4609375,85655.375,86220.4296875,86016.3125,86106.8828125,86199.6875,86303.1328125,86472.8203125,0.0
1762651845.9489965,86851.1015625,86575.1953125,87140.15625,86936.6640625,87026.609375,87119.4140625,87223.3046875,87393.1796875,0.0
1762651845.9515038,87130.234375,86854.7734375,87419.8203125,87216.421875,87306.09375,87398.9921875,87502.8828125,87673.203125,0.0
1762651845.9515193,86554.359375,86278.8125,86843.59375,86640.1015625,86730.40625,86822.765625,86926.4765625,87096.796875,0.0
1762651845.95394,86026.4140625,85750.7734375,86315.46875,86111.6171875,86201.828125,86294.1875,86398.5234375,86567.8671875,0.0
1762651845.9564,86870.5078125,86595.21875,87160.2734375,86956.25,87046.7265625,87139.265625,87243.2421875,87412.8515625,0.0
1762651845.9564157,87308.8671875,87033.4921875,87598.6328125,87395.1484375,87485.265625,87577.625,87681.9609375,87851.65625,0.0
1762651845.959106,86870.1484375,86594.5078125,87159.46875,86955.9765625,87045.921875,87138.546875,87242.7109375,87412.2265625,0.0
1762651845.9617996,86173.84375,85898.296875,86463.078125,86259.0546875,86349.265625,86442.15625,86545.78125,86715.0234375,0.0
1762651845.9638972,86865.5,86589.9453125,87154.8203125,86951.0625,87041.1875,87133.8984375,87238.0546875,87407.75,0.0
1762651845.963915,87460.859375,87184.953125,87750.5390625,87546.8671875,87636.546875,87729.2578125,87833.8671875,88003.7421875,0.0
1762651845.9688869,87168.3203125,86892.4140625,87458.0,87254.328125,87343.828125,87436.71875,87541.1484375,87710.6640625,0.0
1762651845.9713633,86376.625,86100.3515625,86665.4921875,86461.828125,86551.859375,86644.578125,86748.2890625,86918.25,0.0
1762651845.9756212,86855.75,86579.84375,87144.8984375,86941.40625,87031.3515625,87124.0625,87227.953125,87398.0078125,0.0
1762651845.9756825,87595.5078125,87319.328125,87885.0078125,87681.6953125,87771.015625,87863.7265625,87968.3359375,88138.4765625,0.0
1762651845.988947,87446.1953125,87170.109375,87735.3359375,87532.3828125,87621.8828125,87714.328125,87818.84375,87988.984375,0.0
1762651845.991654,86628.2109375,86351.9453125,86917.265625,86713.6875,86803.5390625,86896.34375,87000.5,87169.84375,0.0
1762651845.9916952,86844.1328125,86568.4921875,87133.71875,86930.0546875,87019.640625,87112.6171875,87217.046875,87386.4765625,0.0
1762651846.0253673,87699.3125,87424.0234375,87989.078125,87785.765625,87874.9921875,87967.796875,88072.671875,88242.3671875,0.0
1762651846.029015,87691.9765625,87416.6953125,87981.8359375,87778.5234375,87867.5703125,87960.2890625,88064.984375,88234.765625,0.0
1762651846.029065,86914.671875,86638.8515625,87203.90625,87000.4140625,87089.9140625,87182.5390625,87287.0546875,87456.4765625,0.0
1762651846.0290787,86856.9140625,86581.09375,87145.8828125,86942.296875,87032.15625,87124.78125,87229.1171875,87398.71875,0.0
1762651846.031671,87773.609375,87497.875,88063.109375,87859.9765625,87949.0234375,88041.9140625,88146.703125,88316.578125,0.0
1762651846.0369709,87912.453125,87636.546875,88202.3125,87998.8203125,88088.2265625,88180.5859375,88285.640625,88455.6015625,0.0
1762651846.0393512,87225.984375,86950.078125,87515.484375,87311.640625,87401.5859375,87493.8515625,87598.6328125,87768.421875,0.0
1762651846.0418372,86903.9453125,86628.484375,87193.625,86989.953125,87079.984375,87172.34375,87276.7734375,87446.5546875,0.0
1762651846.04436,87817.1484375,87542.3125,88107.2734375,87904.2265625,87993.546875,88085.8125,88190.6875,88361.0078125,0.0
1762651846.0467367,88110.3125,87835.3828125,88400.171875,88197.3984375,88286.8046875,88378.890625,88484.03125,88654.3515625,0.0
1762651846.049117,87547.5859375,87272.2109375,87837.53125,87634.1328125,87723.71875,87815.8984375,87920.859375,88090.8203125,0.0
1762651846.0552275,87002.2890625,86726.5625,87291.96875,87088.03125,87178.2421875,87270.2421875,87374.671875,87544.7265625,0.0
1762651846.057948,87837.9765625,87562.3359375,88127.921875,87924.8828125,88014.203125,88106.46875,88211.078125,88381.3046875,0.0
1762651846.0601988,88287.6953125,88012.5,88578.0,88374.8671875,88464.09375,88556.6328125,88661.4140625,88831.3828125,0.0
1762651846.0602536,87861.40625,87585.8515625,88151.171875,87947.953125,88037.265625,88129.984375,88234.5859375,88404.375,0.0
1762651846.0633144,87153.5703125,86878.015625,87442.9765625,87239.84375,87329.34375,87422.0546875,87526.21875,87695.8203125,0.0
1762651846.0633655,87830.0234375,87554.734375,88120.0546875,87916.8359375,88006.3359375,88098.5078125,88203.65625,88373.5234375,0.0
1762651846.0656416,88437.2734375,88161.9921875,88727.3984375,88524.53125,88613.5859375,88705.9453125,88810.90625,88981.2265625,0.0
1762651846.0657182,88154.75,87879.28125,88444.78125,88241.6484375,88330.7890625,88423.4140625,88528.2890625,88698.25,0.0
1762651846.101918,87358.0390625,87082.21875,87647.5390625,87444.3203125,87533.8125,87626.171875,87731.046875,87900.5625,0.0
1762651846.1019945,87815.625,87539.8984375,88105.3046875,87902.4375,87991.3984375,88084.1171875,88188.8984375,88358.5078125,0.0
1762651846.1044047,88564.859375,88289.6640625,88854.71875,88652.2109375,88740.71875,88833.8828125,88938.7578125,89108.6328125,0.0
1762651846.10448,88425.3828125,88150.0078125,88715.5078125,88512.375,88601.421875,88694.3203125,88799.375,88969.15625,0.0
1762651846.1066484,87607.6640625,87331.84375,87897.2578125,87694.125,87783.171875,87876.15625,87980.8515625,88150.7265625,0.0
1762651846.1093194,87800.6953125,87525.140625,88090.5546875,87887.2421875,87976.3828125,88069.2734375,88173.8828125,88344.2890625,0.0
1762651846.1119163,88660.7890625,88385.2421875,88950.9140625,88748.140625,88836.921875,88929.90625,89034.6875,89205.0078125,0.0
1762651846.114349,88666.8671875,88391.5,88957.3515625,88754.21875,88843.5390625,88935.8984375,89040.953125,89211.09375,0.0
1762651846.1226125,87896.5390625,87621.078125,88186.84375,87983.4453125,88072.8515625,88165.4765625,88270.2578125,88439.6875,0.0
1762651846.1466224,87814.734375,87539.1796875,88104.859375,87901.6328125,87990.7734375,88083.7578125,88188.6328125,88357.96875,0.0
1762651846.1551385,88736.96875,88461.4140625,89027.1796875,88824.3203125,88912.828125,89005.546875,89110.6875,89281.2734375,0.0
1762651846.158244,88887.796875,88612.3359375,89178.0078125,88975.4140625,89063.75,89156.28125,89261.515625,89432.28125,0.0
1762651846.1631188,88210.5390625,87935.1640625,88500.21875,88297.7109375,88386.3125,88479.0234375,88584.171875,88754.3984375,0.0
1762651846.163196,87865.515625,87590.5859375,88155.640625,87952.8671875,88041.828125,88134.6328125,88239.1484375,88409.3828125,0.0
1762651846.169449,88775.9453125,88500.6640625,89066.25,88863.296875,88952.5234375,89045.2421875,89150.203125,89320.34375,0.0
1762651846.171357,89084.3984375,88809.1171875,89374.3515625,89171.5703125,89260.625,89353.515625,89458.390625,89628.9765625,0.0
1762651846.1739533,88531.6875,88256.1328125,88821.6328125,88618.4140625,88707.90625,88800.53125,88905.0546875,89075.28125,0.0
1762651846.1766424,87967.4375,87691.9765625,88257.390625,88054.34375,88143.390625,88236.1953125,88340.8046875,88510.5859375,0.0
1762651846.1793156,88789.265625,88513.8984375,89079.5703125,88876.890625,88965.4921875,89058.4765625,89163.4375,89333.671875,0.0
1762651846.1815808,89254.1875,88978.6328125,89544.578125,89341.984375,89430.40625,89523.65625,89628.53125,89799.1171875,0.0
1762651846.1844127,88840.5,88564.9453125,89130.625,88927.7578125,89016.6328125,89109.796875,89214.84375,89385.1640625,0.0
1762651846.1865373,88123.8125,87847.9921875,88413.671875,88210.359375,88299.2265625,88392.390625,88497.4453125,88667.40625,0.0
1762651846.1891932,88782.1171875,88506.1171875,89072.0625,88869.109375,88957.625,89050.25,89155.8359375,89326.25,0.0
1762651846.1917143,89400.1015625,89124.546875,89690.4921875,89487.8046875,89576.3203125,89668.8515625,89774.53125,89945.125,0.0
1762651846.2293484,89131.1640625,88855.7890625,89421.46875,89218.6875,89307.828125,89400.1015625,89505.6015625,89676.09375,0.0
1762651846.2294247,88329.984375,88054.7890625,88620.203125,88417.0703125,88506.5625,88599.0078125,88703.703125,88874.1171875,0.0
1762651846.2315896,88762.1796875,88486.8046875,89052.3046875,88849.7109375,88938.671875,89031.203125,89136.34375,89306.4921875,0.0
1762651846.2317083,89520.171875,89244.9765625,89810.5625,89608.0546875,89696.75,89789.1953125,89894.875,90065.109375,0.0
1762651846.2345145,89395.4453125,89120.078125,89685.75,89483.15625,89571.8515625,89664.7421875,89770.2421875,89940.6484375,0.0
1762651846.2345912,88582.2890625,88306.921875,88872.5078125,88669.9140625,88758.6953125,88851.5859375,88956.4609375,89126.8671875,0.0
1762651846.2366304,88752.34375,88477.0625,89042.2890625,88839.6015625,88928.3828125,89021.3671875,89126.2421875,89296.8359375,0.0
1762651846.2367015,89617.0859375,89342.25,89907.75,89705.0625,89793.4921875,89886.2890625,89991.5234375,90162.203125,0.0
1762651846.2393987,89637.4765625,89362.28125,89928.046875,89725.71875,89813.9609375,89906.40625,90012.265625,90182.5,0.0
1762651846.2418284,88875.8125,88600.3515625,89165.8515625,88963.2578125,89051.9453125,89144.5703125,89250.1640625,89420.2109375,0.0
1762651846.2578435,88768.2578125,88492.8828125,89058.4765625,88855.609375,88944.5703125,89037.375,89142.515625,89312.65625,0.0
1762651846.2605894,89687.8125,89412.6171875,89977.84375,89775.7890625,89864.1171875,89956.8359375,90062.15625,90232.4765625,0.0
1762651846.262714,89854.640625,89579.4453125,90144.859375,89942.53125,90031.1328125,90123.4921875,90229.34375,90399.578125,0.0
1762651846.26524,89187.9375,88912.6484375,89478.5078125,89275.640625,89364.3359375,89456.6953125,89562.1015625,89732.6015625,0.0
1762651846.26827,88820.296875,88544.7421875,89110.6015625,88907.5546875,88996.25,89088.9609375,89194.375,89364.515625,0.0
1762651846.2705476,89722.140625,89446.9453125,90012.8046875,89810.4765625,89898.8984375,89991.34375,90096.9375,90267.6171875,0.0
1762651846.273278,90040.0703125,89765.1484375,90331.2734375,90128.8515625,90217.1015625,90309.6328125,90415.3125,90585.90625,0.0
1762651846.2789693,89498.7109375,89223.34375,89789.375,89586.9609375,89675.2890625,89768.0078125,89873.328125,90043.3828125,0.0
1762651846.2818477,88918.1953125,88642.5546875,89208.40625,89005.8984375,89094.59375,89187.1328125,89292.0078125,89462.1484375,0.0
1762651846.2819245,89725.8984375,89450.5234375,90016.3828125,89814.0546875,89902.8359375,89994.65625,90100.3359375,90270.65625,0.0
1762651846.2843719,90202.1640625,89926.9765625,90493.1875,90290.6796875,90379.1015625,90471.1953125,90577.2265625,90747.7265625,0.0
1762651846.2844603,89799.75,89524.734375,90090.3203125,89887.8984375,89976.4140625,90068.7734375,90174.453125,90344.953125,0.0
1762651846.2881308,89069.828125,88794.8125,89360.3125,89157.4453125,89246.046875,89338.765625,89444.0,89614.3203125,0.0
1762651846.2882063,89710.1640625,89434.96875,90000.734375,89798.046875,89886.5625,89978.828125,90084.6875,90255.1875,0.0
1762651846.2882283,90343.1640625,90067.7890625,90633.6484375,90431.671875,90519.5625,90611.6484375,90717.78125,90888.7265625,0.0
1762651846.2905753,90084.59375,89809.4921875,90375.3515625,90173.2890625,90261.1796875,90353.7109375,90459.390625,90630.4296875,0.0
1762651846.2931404,89277.875,89002.59375,89568.1796875,89365.9453125,89454.28125,89546.90625,89652.1328125,89822.6328125,0.0
1762651846.293213,89686.2890625,89411.0078125,89976.859375,89774.7109375,89862.9609375,89955.5859375,90061.265625,90231.671875,0.0
1762651846.2956588,90454.3828125,90179.28125,90745.5859375,90543.1640625,90631.234375,90723.765625,90829.71875,91000.75,0.0
1762651846.2957335,90344.4140625,90069.3984375,90635.34375,90432.75,90520.9921875,90613.6171875,90719.5625,90890.6015625,0.0
1762651846.298052,89531.4375,89256.328125,89821.7421875,89619.234375,89707.8359375,89800.4609375,89905.78125,90076.28125,0.0
1762651846.298128,89673.6796875,89398.7578125,89964.1640625,89761.8359375,89850.3515625,89942.796875,90047.9375,90218.6171875,0.0
1762651846.3005788,90547.3671875,90272.3515625,90838.296875,90636.328125,90724.3046875,90816.84375,90922.5234375,91093.46875,0.0
1762651846.30308,90578.75,90303.9140625,90869.7734375,90667.796875,90755.7734375,90848.3125,90954.078125,91125.0234375,0.0
1762651846.305626,89821.1171875,89546.3671875,90111.8671875,89909.71875,89998.0546875,90090.6796875,90196.265625,90366.765625,0.0
1762651846.3090315,89687.71875,89412.4375,89978.2890625,89776.0546875,89864.5703125,89957.1015625,90062.515625,90233.015625,0.0
1762651846.309085,90609.328125,90334.3984375,90900.34375,90698.375,90786.625,90878.9765625,90984.75,91155.78125,0.0
1762651846.343086,90786.4453125,90511.875,91077.640625,90875.8515625,90963.6484375,91056.1796875,91162.0390625,91333.5234375,0.0
1762651846.346656,90127.6953125,89853.03125,90418.7109375,90216.5625,90304.625,90397.25,90502.6640625,90674.1484375,0.0
1762651846.3467257,89739.3984375,89463.9375,90030.0625,89827.375,89915.7109375,90008.515625,90114.1015625,90284.8671875,0.0
1762651846.3467464,90637.3125,90362.1171875,90927.9765625,90726.0,90814.15625,90906.6015625,91012.734375,91183.765625,0.0
1762651846.3467622,90968.5625,90693.3671875,91259.4921875,91057.96875,91145.859375,91238.125,91344.25,91515.2890625,0.0
1762651846.3507097,90437.1328125,90161.84375,90727.7890625,90525.8203125,90614.15625,90706.8671875,90812.3671875,90983.140625,0.0
1762651846.350786,89840.4296875,89565.5,90131.265625,89928.7578125,90017.5390625,90110.078125,90215.578125,90386.078125,0.0
1762651846.3508155,90634.8984375,90360.2421875,90926.3671875,90724.21875,90812.3671875,90905.0859375,91011.2109375,91181.53125,0.0
1762651846.3508427,91123.5078125,90848.7578125,91415.2421875,91213.2734375,91300.9765625,91393.875,91499.8203125,91670.6796875,0.0
1762651846.3581035,90735.9296875,90461.0,91027.21875,90824.9765625,90913.3125,91005.671875,91111.6171875,91282.6484375,0.0
1762651846.360296,89996.7109375,89721.15625,90287.28125,90084.953125,90173.9140625,90266.0078125,90371.59375,90542.359375,0.0
1762651846.363124,90618.625,90343.34375,90909.5546875,90707.3203125,90795.921875,90888.2734375,90994.046875,91165.078125,0.0
1762651846.3653605,91262.890625,90987.875,91553.8203125,91352.390625,91440.1875,91532.8125,91638.7578125,91810.328125,0.0
1762651846.368086,91016.6640625,90741.5625,91307.8671875,91106.25,91194.140625,91286.8515625,91392.3515625,91563.8359375,0.0
1762651846.376609,90206.546875,89931.4453125,90497.65625,90295.6015625,90383.6640625,90476.5546875,90582.1484375,90752.828125,0.0
1762651846.3766809,90596.5390625,90320.9921875,90887.46875,90685.59375,90773.390625,90866.1953125,90972.140625,91143.1796875,0.0
1762651846.3794184,91377.8671875,91102.8515625,91669.3359375,91467.2734375,91555.34375,91647.875,91753.828125,91925.578125,0.0
1762651846.379495,91277.9140625,91002.8984375,91569.3828125,91367.140625,91455.65625,91547.921875,91653.6875,91825.265625,0.0
1762651846.3918228,90464.7578125,90189.6484375,90755.953125,90553.8984375,90642.2265625,90734.5,90840.265625,91011.3046875,0.0
1762651846.4280877,90583.3984375,90308.1171875,90874.328125,90672.4453125,90760.875,90853.2265625,90958.8203125,91129.765625,0.0
1762651846.4281616,91462.359375,91187.4296875,91753.6484375,91551.9453125,91639.8359375,91732.3671875,91838.2265625,92009.7109375,0.0
1762651846.428184,91506.6171875,91231.15625,91797.546875,91595.6640625,91683.4609375,91775.8203125,91882.0390625,92053.6953125,0.0
1762651846.4282064,90756.2265625,90480.8515625,91046.9765625,90844.828125,90933.0703125,91025.4296875,91131.5546875,91302.5,0.0
1762651846.4305787,90598.953125,90323.671875,90889.8828125,90687.734375,90776.0703125,90868.3359375,90974.2890625,91145.140625,0.0
1762651846.43308,91521.90625,91246.890625,91813.28125,91611.3125,91699.2890625,91791.46875,91897.859375,92069.078125,0.0
1762651846.433156,91711.1796875,91435.71875,92002.2890625,91800.046875,91888.296875,91980.5625,92087.046875,92258.171875,0.0
1762651846.4352944,91062.4453125,90786.625,91353.1015625,91151.2265625,91239.2890625,91331.9140625,91437.953125,91608.8046875,0.0
1762651846.4379857,90652.6875,90377.2265625,90943.171875,90741.3828125,90829.0859375,90921.984375,91028.1953125,91198.7890625,0.0
1762651846.4407308,91543.453125,91268.2578125,91834.5625,91632.9453125,91720.390625,91813.1953125,91919.8515625,92090.890625,0.0
1762651846.4430676,91887.4921875,91612.6484375,92179.2265625,91977.5234375,92065.2265625,92157.40625,92264.515625,92435.5546875,0.0
1762651846.4456604,91368.125,91093.109375,91659.234375,91457.53125,91545.5078125,91637.6875,91744.6171875,91915.3828125,0.0
1762651846.4481163,90754.34375,90479.5078125,91045.2734375,90843.484375,90931.4609375,91023.8203125,91130.390625,91301.25,0.0
1762651846.450497,91535.9375,91260.75,91826.78125,91625.3515625,91712.4296875,91805.5,91912.2578125,92083.109375,0.0
1762651846.4532912,92038.5859375,91763.5703125,92329.4296875,92128.3515625,92215.609375,92308.328125,92414.8984375,92586.5625,0.0
1762651846.4554005,91662.359375,91387.703125,91953.203125,91751.859375,91839.4765625,91932.1953125,92038.765625,92209.9765625,0.0
1762651846.455507,90915.546875,90640.7109375,91206.1171875,91004.59375,91092.484375,91184.75,91291.3203125,91462.09375,0.0
1762651846.4605007,91518.328125,91243.671875,91809.2578125,91607.9140625,91695.8046875,91787.7109375,91894.5546875,92065.765625,0.0
1762651846.4644227,92175.6484375,91901.171875,92467.0234375,92265.9453125,92353.390625,92445.921875,92552.0546875,92723.984375,0.0
1762651846.4644747,91943.546875,91669.0703125,92234.8359375,92033.578125,92121.375,92213.5546875,92319.6796875,92491.609375,0.0
1762651846.4990685,91129.765625,90854.9296875,91420.875,91218.9921875,91307.1484375,91399.1484375,91505.6328125,91676.6640625,0.0
1762651846.5018704,91492.0390625,91217.5625,91783.8671875,91581.984375,91669.6953125,91762.0546875,91868.7109375,92039.8359375,0.0
1762651846.5019464,92284.0078125,92009.53125,92575.921875,92374.21875,92461.9296875,92553.75,92660.7734375,92832.5234375,0.0
1762651846.5043192,92196.8359375,91922.265625,92488.484375,92286.8671875,92374.4921875,92466.7578125,92573.421875,92745.3515625,0.0
1762651846.5064547,91387.4375,91113.046875,91678.6328125,91477.3828125,91565.0,91657.625,91763.484375,91934.6953125,0.0
1762651846.5455976,91477.734375,91203.703125,91769.203125,91567.6796875,91655.390625,91748.375,91853.9609375,92025.1796875,0.0
1762651846.545658,92364.4765625,92090.0,92656.296875,92454.6015625,92541.859375,92635.0234375,92741.0546875,92912.8984375,0.0
1762651846.545668,92421.6953125,92147.21875,92713.34375,92512.265625,92599.3515625,92691.796875,92798.4609375,92970.296875,0.0
1762651846.5480652,91677.828125,91403.3515625,91969.3828125,91768.0390625,91855.484375,91948.015625,92054.4140625,92225.625,0.0
1762651846.5507412,91497.40625,91223.109375,91788.875,91587.2578125,91674.96875,91767.6875,91874.1640625,92045.0234375,0.0
1762651846.5530732,92424.0234375,92149.6328125,92715.6640625,92514.5,92601.671875,92694.03125,92800.9609375,92972.265625,0.0
1762651846.5531485,92626.8828125,92352.2265625,92918.4375,92717.09375,92804.359375,92896.890625,93003.6484375,93175.125,0.0
1762651846.5557756,91986.4609375,91711.71875,92278.015625,92076.3203125,92164.203125,92256.46875,92362.8671875,92534.53125,0.0
1762651846.5558531,91554.4453125,91279.5234375,91845.734375,91643.765625,91732.1875,91824.3671875,91930.5859375,92101.9765625,0.0
1762651846.571534,92442.2578125,92167.9609375,92733.90625,92532.3828125,92620.265625,92712.71875,92819.109375,92990.7734375,0.0
1762651846.5715823,92801.40625,92527.375,93093.234375,92892.0625,92979.59375,93072.0390625,93178.796875,93350.6328125,0.0
1762651846.5754404,92293.125,92019.0078125,92584.953125,92383.7890625,92471.4921875,92563.8515625,92670.0703125,92841.8203125,0.0
1762651846.575516,91666.296875,91391.7265625,91958.03125,91756.2421875,91844.484375,91937.0234375,92042.7890625,92214.1796875,0.0
1762651846.5755372,92440.203125,92165.546875,92731.9375,92530.4140625,92618.125,92710.8359375,92817.234375,92988.625,0.0
1762651846.5793352,92957.6015625,92683.390625,93249.6015625,93048.3515625,93135.609375,93228.1484375,93335.078125,93507.09375,0.0
1762651846.579412,92591.5703125,92317.0,92883.3046875,92681.6953125,92769.671875,92862.0234375,92968.421875,93140.171875,0.0
1762651846.5794456,91831.1640625,91556.234375,92122.5390625,91920.75,92009.0859375,92101.0859375,92207.4765625,92378.9609375,0.0
1762651846.5816052,92414.8125,92139.6171875,92706.1875,92504.84375,92592.375,92684.734375,92791.125,92963.0546875,0.0
1762651846.5816808,93086.4375,92811.78125,93378.3515625,93177.453125,93264.5390625,93356.984375,93463.46875,93635.484375,0.0
1762651846.584313,92865.0625,92590.5,93157.0703125,92955.90625,93043.34375,93135.7890625,93242.1875,93413.84375,0.0
1762651846.5869122,92047.53125,91773.140625,92339.171875,92137.921875,92225.359375,92317.8046875,92424.203125,92595.7734375,0.0
1762651846.5869892,92385.6640625,92111.0078125,92677.21875,92476.234375,92563.40625,92655.9453125,92762.3359375,92934.0,0.0
1762651846.5893493,93188.0,92913.8828125,93479.9140625,93279.109375,93366.1953125,93458.546875,93565.75,93737.2265625,0.0
1762651846.5919733,93113.171875,92838.9609375,93405.3515625,93203.9140625,93291.265625,93383.359375,93490.375,93661.953125,0.0
1762651846.5942776,92309.046875,92034.4765625,92600.9609375,92399.34375,92486.875,92579.234375,92685.5390625,92857.375,0.0
1762651846.5969253,92376.3671875,92101.796875,92668.1875,92466.578125,92553.8359375,92646.46875,92752.6796875,92924.703125,0.0
1762651846.5991056,93270.171875,92996.046875,93562.53125,93361.5390625,93448.265625,93540.984375,93647.6484375,93819.578125,0.0
1762651846.599188,93336.5078125,93062.1171875,93628.8671875,93427.6171875,93514.609375,93606.9609375,93713.984375,93886.09375,0.0
1762651846.6019208,92602.03125,92327.7265625,92894.3046875,92692.6875,92780.125,92872.3046875,92978.96875,93150.8125,0.0
1762651846.6080203,92395.234375,92120.84375,92687.4140625,92485.171875,92573.2421875,92665.1484375,92772.0859375,92943.8359375,0.0
1762651846.6417024,93316.75,93042.359375,93609.46875,93407.8515625,93495.203125,93587.1171875,93694.3125,93866.515625,0.0
1762651846.6417544,93535.078125,93260.6875,93827.890625,93626.453125,93713.359375,93805.71875,93912.5546875,94084.578125,0.0
1762651846.6443183,92907.1796875,92632.609375,93199.625,92998.1015625,93085.1875,93177.453125,93284.203125,93456.046875,0.0
1762651846.6443944,92456.2109375,92181.640625,92748.4765625,92547.1328125,92634.3984375,92726.3046875,92833.0546875,93004.984375,0.0
1762651846.6465852,93333.203125,93058.6328125,93625.5625,93424.75,93511.2109375,93603.296875,93710.40625,93882.3359375,0.0
1762651846.6493514,93705.8515625,93431.9921875,93998.4765625,93797.7578125,93884.3046875,93976.21875,94083.5,94255.7890625,0.0
1762651846.6580455,93212.9453125,92938.9140625,93505.3125,93304.0546875,93391.40625,93483.671875,93590.421875,93762.625,0.0
1762651846.6605632,92570.5625,92296.078125,92862.46875,92661.0390625,92748.296875,92840.921875,92947.3203125,93119.4296875,0.0
1762651846.6630597,93324.4375,93049.78125,93616.6171875,93415.3671875,93502.1796875,93595.1640625,93701.9140625,93874.0234375,0.0
1762651846.6656551,93854.796875,93580.4140625,94147.25,93946.0859375,94033.1640625,94125.703125,94232.9921875,94404.7421875,0.0
1762651846.6743276,93505.9375,93231.453125,93798.0234375,93596.859375,93684.03125,93776.4765625,93883.859375,94055.4296875,0.0
1762651846.6767418,92737.75,92462.734375,93029.21875,92827.6015625,92915.1328125,93007.8515625,93114.328125,93286.0859375,0.0
1762651846.676798,93299.765625,93025.1953125,93592.03125,93390.6015625,93477.7734375,93570.125,93677.1484375,93848.8984375,0.0
1762651846.6794364,93979.8828125,93705.2265625,94272.421875,94071.5234375,94158.4296875,94250.515625,94357.625,94529.8203125,0.0
1762651846.679489,93773.4375,93498.6015625,94065.7109375,93864.9921875,93951.8046875,94044.078125,94151.1875,94322.9375,0.0
1762651846.6820917,92955.8125,92681.421875,93247.90625,93046.5625,93133.9140625,93226.265625,93333.109375,93504.5078125,0.0
1762651846.6842945,93269.5390625,92995.2421875,93561.8125,93360.6484375,93447.640625,93539.8203125,93647.015625,93818.4140625,0.0
1762651846.686714,94080.9140625,93806.703125,94373.453125,94172.734375,94259.453125,94351.28125,94459.1015625,94631.125,0.0
1762651846.6893816,94017.96875,93743.84375,94310.421875,94109.703125,94196.6953125,94288.6953125,94395.984375,94568.265625,0.0
1762651846.6894572,93218.671875,92944.0078125,93510.8515625,93309.6875,93396.765625,93489.21875,93596.234375,93767.8984375,0.0
1762651846.6916308,93259.6171875,92985.140625,93551.796875,93350.7265625,93437.71875,93530.078125,93637.2734375,93809.0234375,0.0
1762651846.6943784,94154.1328125,93879.921875,94446.671875,94245.7734375,94332.7734375,94424.7734375,94532.5078125,94704.2578125,0.0
1762651846.6980612,94235.2265625,93960.8359375,94527.859375,94326.9609375,94413.7734375,94506.1328125,94613.6875,94785.3515625,0.0
1762651846.698136,93507.09375,93232.53125,93799.4609375,93598.0234375,93685.375,93777.5546875,93884.6640625,94056.3203125,0.0
1762651846.731543,93277.0546875,93002.484375,93569.0546875,93367.625,93454.8828125,93547.1484375,93653.9921875,93826.0078125,0.0
1762651846.7340243,94197.40625,93923.015625,94489.859375,94288.875,94375.8671875,94467.7734375,94575.15625,94747.7109375,0.0
1762651846.7340739,94426.5546875,94152.4375,94719.1875,94518.2890625,94605.015625,94697.1015625,94804.6640625,94976.6796875,0.0
1762651846.7368557,93809.0234375,93534.8125,94101.203125,93899.953125,93987.2109375,94079.390625,94186.765625,94358.4296875,0.0
1762651846.7393067,93335.703125,93061.40625,93627.796875,93426.5390625,93513.625,93606.25,93713.1796875,93884.75,0.0
1762651846.742103,94207.3359375,93933.296875,94499.6953125,94298.796875,94385.609375,94478.0546875,94585.5234375,94757.2734375,0.0
1762651846.7439504,94591.515625,94317.5703125,94883.9609375,94683.6015625,94770.2421875,94862.5078125,94969.8828125,95142.0859375,0.0
1762651846.7467535,94105.8515625,93831.734375,94398.125,94197.40625,94284.4921875,94376.4921875,94483.78125,94655.9765625,0.0
1762651846.7499528,93448.890625,93174.4140625,93740.984375,93539.7265625,93627.3515625,93719.4375,93826.3671875,93998.4765625,0.0
1762651846.751951,94188.109375,93914.078125,94480.109375,94279.5703125,94366.65625,94458.7421875,94565.8515625,94738.3203125,0.0
1762651846.7542524,94732.7734375,94458.4765625,95024.78125,94824.5078125,94911.0546875,95003.5,95110.703125,95283.1640625,0.0
1762651846.7567368,94392.1328125,94117.75,94684.3203125,94483.6875,94570.328125,94662.5,94769.8828125,94942.078125,0.0
1762651846.7567892,93618.2265625,93343.9296875,93910.234375,93709.15625,93796.2421875,93888.5078125,93995.3515625,94167.546875,0.0
1762651846.7589922,94161.46875,93886.984375,94453.3828125,94252.5703125,94339.3828125,94431.7421875,94539.03125,94711.3203125,0.0
1762651846.7655404,94855.53125,94581.0546875,95148.1640625,94947.4453125,95033.8125,95126.1640625,95233.7265625,95406.1015625,0.0
1762651846.7767959,94659.734375,94385.609375,94952.09375,94751.640625,94838.1015625,94930.6328125,95038.1015625,95210.4765625,0.0
1762651846.7768652,93838.078125,93563.6953125,94129.8203125,93929.0078125,94016.0,94108.71875,94215.6484375,94387.6640625,0.0
1762651846.7768888,94129.28125,93854.9765625,94421.640625,94220.65625,94307.6484375,94400.09375,94507.0234375,94679.21875,0.0
1762651846.7793157,94949.859375,94675.5546875,95242.125,95041.765625,95128.40625,95220.4921875,95328.2265625,95500.6953125,0.0
1762651846.7793927,94896.03125,94621.8203125,95188.3984375,94988.125,95074.578125,95166.4921875,95274.40625,95446.515625,0.0
1762651846.7818089,94100.046875,93825.65625,94392.2265625,94191.5078125,94278.4140625,94370.5,94477.875,94649.625,0.0
1762651846.7856069,94115.2421875,93840.765625,94407.3359375,94206.4375,94293.609375,94385.5234375,94492.8125,94665.2734375,0.0
1762651846.81915,95015.6640625,94741.453125,95307.9296875,95107.2109375,95194.3828125,95286.203125,95394.03125,95566.5859375,0.0
1762651846.844433,95107.9296875,94833.453125,95400.46875,95199.75,95286.296875,95378.3828125,95486.296875,95658.6796875,0.0
1762651846.844508,94387.3984375,94112.7421875,94679.671875,94478.59375,94565.5,94657.9453125,94765.140625,94937.25,0.0
1762651846.8445354,94132.5,93857.84375,94424.6796875,94223.515625,94310.59375,94403.046875,94510.2421875,94682.265625,0.0
1762651846.850587,95051.0625,94776.765625,95343.6953125,95142.7109375,95229.5234375,95321.8828125,95429.5234375,95601.8125,0.0
1762651846.853061,95294.703125,95020.3125,95587.2421875,95386.34375,95472.9765625,95565.6015625,95673.15625,95845.625,0.0
1762651846.8555944,94690.578125,94416.09375,94983.0234375,94782.0390625,94868.9453125,94961.125,95068.9453125,95241.3203125,0.0
1762651846.8579462,94199.2890625,93924.1796875,94491.2890625,94290.65625,94377.65625,94469.7421875,94577.5703125,94749.2265625,0.0
1762651846.860559,95060.546875,94785.9765625,95353.2578125,95152.5390625,95239.0859375,95331.0,95439.1796875,95611.734375,0.0
1762651846.8630633,95460.375,95186.6953125,95753.71875,95553.0,95639.453125,95731.09375,95839.546875,96012.015625,0.0
1762651846.8656683,94990.71875,94716.6875,95283.5234375,95082.71875,95169.4375,95261.4375,95369.3515625,95541.9140625,0.0
1762651846.8680625,94319.5390625,94045.5078125,94612.1640625,94411.4453125,94497.9921875,94590.4375,94698.0,94870.015625,0.0
1762651846.870288,95042.6640625,94768.984375,95335.734375,95134.9296875,95221.296875,95313.7421875,95421.390625,95593.765625,0.0
1762651846.876748,95599.1328125,95325.546875,95892.4765625,95691.84375,95778.2109375,95870.5703125,95978.125,96150.953125,0.0
1762651846.9165149,95271.9921875,94998.3125,95565.2421875,95364.5234375,95450.984375,95543.25,95650.8046875,95823.71875,0.0
1762651846.9189656,94489.9453125,94215.6484375,94782.484375,94581.59375,94668.40625,94760.5859375,94868.2265625,95040.6015625,0.0
1762651846.9215107,95007.96875,94733.578125,95300.6015625,95099.8828125,95186.515625,95278.4296875,95386.4296875,95558.6328125,0.0
1762651846.9243703,95711.25,95437.484375,96004.234375,95804.0546875,95889.96875,95982.421875,96090.3359375,96262.796875,0.0
1762651846.924444,95529.0390625,95255.0,95822.3828125,95622.109375,95708.1171875,95800.3828125,95908.4765625,96081.2109375,0.0
1762651846.926612,94709.6171875,94435.6796875,95002.875,94802.15625,94888.5234375,94980.96875,95088.6171875,95260.7265625,0.0
1762651846.926685,94975.4296875,94701.125,95268.7734375,95068.0546875,95154.6015625,95246.421875,95353.9765625,95526.265625,0.0
1762651846.9292853,95800.3828125,95526.4453125,96094.0859375,95893.3671875,95979.828125,96071.46875,96179.6484375,96352.4765625,0.0
1762651846.9293365,95760.5078125,95486.5703125,96054.3046875,95853.40625,95939.859375,96031.6796875,96140.046875,96312.421875,0.0
1762651846.9319887,94967.7421875,94693.53125,95260.8125,95059.9140625,95147.0,95238.4609375,95346.46875,95518.578125,0.0
1762651846.9320652,94958.2578125,94684.140625,95251.15625,95050.6171875,95137.1640625,95228.984375,95336.9921875,95509.3671875,0.0
1762651846.9342906,95858.6796875,95584.46875,96151.84375,95951.390625,96037.9375,96129.5859375,96238.125,96410.859375,0.0
1762651846.9369268,95963.4609375,95689.25,96256.984375,96056.1796875,96142.546875,96234.7265625,96343.3515625,96515.640625,0.0
1762651846.9393637,95254.9140625,94980.5234375,95547.71875,95347.0,95433.7265625,95525.640625,95633.5546875,95806.109375,0.0
1762651846.9415824,94978.2890625,94704.078125,95271.09375,95070.2890625,95157.3671875,95249.015625,95356.8359375,95529.390625,0.0
1762651846.9442942,95893.7265625,95619.3359375,96186.0859375,95985.8125,96072.1796875,96164.1796875,96272.6328125,96445.1875,0.0
1762651846.9469557,96152.0234375,95877.8125,96444.921875,96244.46875,96330.9296875,96422.8359375,96531.2890625,96704.2890625,0.0
1762651846.9492164,95557.828125,95283.703125,95850.546875,95650.5390625,95737.0859375,95828.8203125,95937.0,96109.734375,0.0
1762651846.9515414,95049.3671875,94774.890625,95342.0859375,95141.7265625,95228.2734375,95320.09375,95428.0078125,95600.46875,0.0
1762651846.9643364,95903.5625,95629.53125,96196.90625,95996.1875,96082.8203125,96174.5546875,96282.734375,96455.7421875,0.0
1762651846.9665358,96316.3515625,96042.5,96609.6953125,96409.4296875,96495.6171875,96587.1640625,96695.7109375,96868.890625,0.0
1762651846.9692962,95856.3515625,95581.9609375,96148.984375,95948.8046875,96035.078125,96126.8984375,96235.3515625,96408.3515625,0.0
1762651846.9730716,95171.8515625,94897.375,95464.21875,95263.6796875,95350.3125,95442.3125,95550.4921875,95722.78125,0.0
1762651846.9731483,95881.03125,95607.0,96174.109375,95973.8359375,96060.109375,96152.2890625,96260.4765625,96433.1171875,0.0
1762651846.9731784,96451.625,96177.953125,96744.8828125,96545.1484375,96630.890625,96723.0625,96831.4296875,97004.609375,0.0
1762651846.9755497,96136.828125,95862.703125,96429.8125,96229.984375,96315.9921875,96407.9921875,96516.4453125,96689.2734375,0.0
1762651846.978106,95349.7734375,95075.4765625,95642.4921875,95441.6875,95528.3203125,95620.859375,95728.59375,95901.0546875,0.0
1762651846.9781797,95852.328125,95578.390625,96145.40625,95944.6015625,96031.234375,96123.59375,96231.5078125,96403.96875,0.0
1762651846.9804835,96572.59375,96298.6484375,96865.9375,96665.7578125,96751.5859375,96843.765625,96952.3046875,97124.953125,0.0
1762651846.9827683,96397.359375,96123.3203125,96690.703125,96490.609375,96576.3515625,96668.53125,96776.6171875,96949.8046875,0.0
1762651846.9893117,95576.78125,95303.015625,95870.03125,95669.5859375,95755.859375,95848.0390625,95955.5078125,96128.6875,0.0
1762651846.995306,95823.6328125,95549.78125,96116.9765625,95916.34375,96002.8046875,96094.890625,96202.625,96375.8984375,0.0
1762651846.9977953,96662.1796875,96387.8828125,96955.34375,96755.4296875,96841.171875,96933.3515625,97041.3515625,97214.71875,0.0
1762651847.0006096,96629.9921875,96355.3359375,96923.0703125,96723.0625,96808.8046875,96901.078125,97009.4375,97182.3515625,0.0
1762651847.002822,95844.109375,95569.984375,96137.09375,95936.640625,96022.921875,96115.1875,96223.015625,96396.1953125,0.0
1762651847.002898,95810.6640625,95536.3671875,96103.4765625,95903.296875,95989.2109375,96081.75,96189.578125,96362.3984375,0.0
1762651847.0058024,96718.8671875,96444.921875,97012.03125,96812.4765625,96897.765625,96990.2109375,97098.3046875,97271.3984375,0.0
1762651847.0106218,96835.0,96561.1484375,97128.4375,96928.609375,97014.0859375,97106.171875,97214.359375,97387.8046875,0.0
1762651847.0106964,96133.0703125,95858.9453125,96426.234375,96225.875,96312.2421875,96403.96875,96511.9765625,96685.421875,0.0
1762651847.010723,95835.5234375,95561.671875,96128.6875,95928.328125,96014.4296875,96106.3359375,96214.4296875,96387.25,0.0
1762651847.010741,96752.484375,96478.5390625,97045.9140625,96845.9140625,96931.7421875,97023.6484375,97132.1953125,97305.015625,0.0
1762651847.013191,97019.71875,96745.8671875,97313.328125,97113.234375,97199.15625,97291.15625,97399.4296875,97572.609375,0.0
1762651847.0132933,96436.0703125,96161.59375,96729.234375,96528.78125,96614.8828125,96707.328125,96815.3359375,96987.9765625,0.0
1762651847.0463924,95910.265625,95635.875,96203.1640625,96002.8046875,96089.3515625,96181.6171875,96289.0859375,96461.7265625,0.0
1762651847.0506988,96755.34375,96481.1328125,97048.2421875,96848.6796875,96934.515625,97026.515625,97134.609375,97307.6953125,0.0
1762651847.0507777,97179.7578125,96905.90625,97473.1875,97273.1875,97358.9296875,97450.8359375,97559.5546875,97732.9140625,0.0
1762651847.0508108,96731.2890625,96456.9921875,97024.9921875,96824.5390625,96910.28125,97002.4609375,97110.8203125,97284.09375,0.0
1762651847.0543597,96033.5625,95759.5234375,96327.171875,96126.71875,96212.734375,96305.1796875,96412.734375,96585.6484375,0.0
1762651847.0544348,96726.8203125,96453.234375,97020.34375,96819.984375,96906.0859375,96998.3515625,97106.53125,97279.8046875,0.0
1762651847.054462,97310.6484375,97037.2421875,97604.6171875,97404.5234375,97490.0,97582.4453125,97691.078125,97864.34375,0.0
1762651847.054482,97007.3828125,96734.2421875,97301.4375,97101.4375,97187.0,97279.0,97387.359375,97560.71875,0.0
1762651847.056562,96213.4453125,95939.953125,96506.96875,96306.515625,96392.6171875,96484.703125,96592.890625,96765.8046875,0.0
1762651847.0592897,96692.84375,96419.0859375,96986.546875,96786.2734375,96872.015625,96964.2890625,97072.6484375,97245.6484375,0.0
1762651847.061577,97422.671875,97149.265625,97716.6484375,97516.734375,97602.3828125,97694.3828125,97803.1015625,97976.734375,0.0
1762651847.0656104,97259.8671875,96986.4609375,97553.8359375,97353.921875,97439.5703125,97531.3046875,97640.1171875,97813.5625,0.0
1762651847.096597,96439.6484375,96165.96875,96733.3515625,96532.5390625,96618.8203125,96710.90625,96819.0,96992.359375,0.0
1762651847.0966668,96660.3046875,96386.625,96953.9140625,96753.4609375,96839.921875,96931.921875,97039.921875,97213.1953125,0.0
1762651847.1005528,97508.328125,97234.828125,97801.9375,97602.203125,97688.125,97780.0390625,97888.84375,98061.9375,0.0
1762651847.1006286,97489.1015625,97215.609375,97783.078125,97582.890625,97668.9921875,97760.546875,97869.53125,98042.890625,0.0
1762651847.1006496,96704.734375,96431.1484375,96998.796875,96797.9921875,96884.359375,96976.265625,97084.71875,97257.8984375,0.0
1762651847.1029665,96645.7265625,96371.875,96939.5234375,96738.7109375,96825.171875,96917.078125,97025.4375,97198.625,0.0
1762651847.103047,97557.234375,97283.5546875,97851.2890625,97650.84375,97736.8515625,97828.9375,97937.5703125,98110.84375,0.0
1762651847.1054688,97685.53125,97411.859375,97979.3203125,97779.5859375,97865.421875,97957.328125,98065.9609375,98239.5859375,0.0
1762651847.107672,96989.859375,96716.09375,97283.6484375,97083.5546875,97169.3828125,97261.4765625,97369.8359375,97543.1953125,0.0
1762651847.1144564,96668.703125,96395.296875,96962.2265625,96762.3125,96848.1484375,96940.4140625,97048.6875,97221.6875,0.0
1762651847.1164975,97580.75,97307.6953125,97874.984375,97675.3359375,97760.6328125,97852.8984375,97961.53125,98134.8046875,0.0
1762651847.121703,97861.21875,97588.2578125,98155.546875,97956.1640625,98041.28125,98133.4609375,98242.265625,98415.5390625,0.0
1762651847.121755,97286.328125,97013.1015625,97580.2109375,97380.296875,97466.21875,97558.0390625,97666.7578125,97839.7578125,0.0
1762651847.121765,96741.125,96467.6328125,97035.09375,96834.734375,96921.1015625,97012.8359375,97121.375,97294.46875,0.0
1762651847.1252427,97574.1328125,97300.1875,97868.1015625,97668.453125,97753.9296875,97845.9296875,97954.2890625,98128.0078125,0.0
1762651847.1317933,98010.9765625,97737.296875,98305.390625,98105.2109375,98190.953125,98283.125,98391.3984375,98565.296875,0.0
1762651847.1318684,97574.3984375,97300.90625,97868.4609375,97668.453125,97754.109375,97846.640625,97955.0078125,98128.453125,0.0
1762651847.1432116,96865.8515625,96591.640625,97159.28125,96959.1015625,97044.84375,97137.375,97245.7421875,97418.6484375,0.0
1762651847.145579,97541.3203125,97267.375,97834.5703125,97634.65625,97720.3984375,97812.671875,97921.296875,98094.65625,0.0
1762651847.1456532,98137.21875,97863.5390625,98431.3671875,98231.359375,98316.921875,98409.1953125,98517.9140625,98691.8046875,0.0
1762651847.1480415,97844.5859375,97570.9140625,98138.828125,97939.0,98024.5625,98116.65625,98225.4609375,98399.0859375,0.0
1762651847.1819625,97044.84375,96770.984375,97338.546875,97138.71875,97224.640625,97316.546875,97425.0,97598.359375,0.0
1762651847.1843386,97504.84375,97231.7890625,97798.8125,97599.5234375,97684.9921875,97776.3671875,97885.359375,98058.71875,0.0
1762651847.1844213,98245.3125,97972.53125,98539.90625,98340.3515625,98425.734375,98517.375,98626.453125,98799.9921875,0.0
1762651847.1864376,98094.3046875,97820.8046875,98388.5390625,98188.890625,98274.453125,98366.1015625,98474.90625,98648.8046875,0.0
1762651847.189288,97273.1015625,96999.3359375,97566.796875,97367.15625,97453.0703125,97544.625,97652.8984375,97826.6171875,0.0
1762651847.1918087,97469.96875,97196.2109375,97763.671875,97563.578125,97649.765625,97741.6796875,97849.7734375,98023.7578125,0.0
1762651847.1945305,98323.6328125,98050.046875,98617.6875,98418.046875,98503.609375,98595.6953125,98704.7734375,98878.3984375,0.0
1762651847.1994681,98315.40625,98042.0859375,98609.5546875,98410.171875,98495.828125,98587.46875,98696.8125,98870.0859375,0.0
1762651847.2015636,97538.4609375,97264.6015625,97832.0703125,97632.15625,97718.2578125,97810.1640625,97918.796875,98091.890625,0.0
1762651847.2042835,97454.953125,97181.2734375,97748.7421875,97548.828125,97634.65625,97727.015625,97835.203125,98008.3828125,0.0
1762651847.2065692,98366.90625,98093.3203125,98661.140625,98461.4921875,98546.8828125,98639.0546875,98748.2265625,98921.4921875,0.0
1762651847.2066572,98506.9140625,98233.1484375,98801.15625,98601.4140625,98686.8046875,98778.9765625,98887.7890625,99061.328125,0.0
1762651847.209689,97822.0546875,97548.2890625,98116.0234375,97916.46875,98001.671875,98093.765625,98202.21875,98376.0234375,0.0
1762651847.2117507,97480.34375,97206.7578125,97774.4921875,97574.6640625,97660.0546875,97752.40625,97860.7734375,98034.0390625,0.0
1762651847.2143033,98388.453125,98115.1328125,98682.8671875,98483.3984375,98568.4296875,98660.6015625,98769.3203125,98943.21875,0.0
1762651847.21438,98680.453125,98406.9609375,98974.8671875,98775.3125,98860.515625,98952.7890625,99061.5078125,99235.578125,0.0
1762651847.2194624,98118.171875,97844.5859375,98412.234375,98212.5859375,98297.7890625,98390.1484375,98498.6015625,98672.765625,0.0
1762651847.226526,97557.5,97284.0078125,97851.6484375,97651.9140625,97737.1171875,97829.1171875,97937.8359375,98111.46875,0.0
1762651847.2265973,98379.1484375,98105.296875,98673.65625,98473.921875,98559.3046875,98650.9453125,98760.0234375,98933.65625,0.0
1762651847.2718296,98831.375,98557.6953125,99125.703125,98926.0546875,99011.796875,99103.4375,99212.515625,99386.3203125,0.0
1762651847.2719047,98404.9921875,98131.2265625,98699.046875,98499.1328125,98585.0546875,98676.875,98785.8671875,98959.578125,0.0
1762651847.274302,97685.9765625,97411.765625,97979.5,97779.6796875,97865.6015625,97957.59375,98065.78125,98239.3203125,0.0
1762651847.274378,98344.640625,98070.6953125,98638.34375,98439.140625,98524.5234375,98616.2578125,98725.0703125,98898.609375,0.0
1762651847.27649,98954.3984375,98680.6328125,99248.546875,99049.5234375,99134.5546875,99226.375,99335.625,99509.078125,0.0
1762651847.2793086,98674.8203125,98400.96875,98968.703125,98769.5,98854.7109375,98946.53125,99055.9609375,99229.140625,0.0
1762651847.2817132,97868.90625,97594.9609375,98162.515625,97962.78125,98048.703125,98140.2578125,98249.2421875,98422.515625,0.0
1762651847.2844665,98303.8671875,98030.1953125,98597.84375,98398.28125,98483.84375,98575.4921875,98684.390625,98857.9296875,0.0
1762651847.2864933,99055.0703125,98781.84375,99349.3046875,99150.2890625,99235.046875,99326.953125,99436.65625,99610.1953125,0.0
1762651847.2893672,98917.203125,98643.6171875,99211.6171875,99012.2421875,99097.1796875,99189.0859375,99298.5234375,99472.0625,0.0
1762651847.291639,98097.4296875,97823.6640625,98391.578125,98191.84375,98277.3203125,98369.40625,98478.75,98651.578125,0.0
1762651847.2943745,98267.9296875,97994.609375,98562.1640625,98362.7890625,98448.0859375,98540.171875,98649.515625,98822.5234375,0.0
1762651847.3093677,99129.6328125,98856.671875,99424.5859375,99225.390625,99310.234375,99401.7890625,99511.578125,99685.4765625,0.0
1762651847.311584,99134.8203125,98861.953125,99429.6796875,99230.484375,99315.6015625,99406.796875,99516.5,99690.484375,0.0
1762651847.3140142,98362.703125,98089.6484375,98656.7578125,98457.7421875,98542.859375,98634.6796875,98743.6640625,98917.46875,0.0
1762651847.3169742,98253.890625,97980.6640625,98547.7734375,98348.75,98434.2265625,98525.8671875,98635.03125,98808.484375,0.0
1762651847.3170261,99168.078125,98894.7578125,99462.4921875,99263.3828125,99348.5,99440.140625,99549.6640625,99723.4765625,0.0
1762651847.3193147,99321.59375,99048.09375,99616.453125,99417.2578125,99502.015625,99593.8359375,99703.4453125,99877.2578125,0.0
1762651847.3217783,98647.4609375,98374.0546875,98941.8828125,98742.59375,98827.703125,98919.4375,99028.6015625,99202.5,0.0
1762651847.3218305,98283.84375,98010.6171875,98577.9921875,98378.4375,98463.8203125,98555.8203125,98664.359375,98838.078125,0.0
1762651847.3242683,99187.3046875,98913.984375,99481.8984375,99282.7890625,99367.7265625,99459.8125,99568.8046875,99742.6953125,0.0
1762651847.3264532,99495.1328125,99221.6328125,99789.7265625,99590.2578125,99675.4609375,99767.375,99876.8984375,100051.0625,0.0
1762651847.3292964,98942.7734375,98669.6328125,99237.3671875,99037.8125,99123.375,99214.9296875,99324.359375,99498.3515625,0.0
1762651847.3317335,98362.96875,98089.5625,98657.4765625,98458.0078125,98543.5703125,98634.765625,98744.109375,98918.3671875,0.0
1762651847.3365932,99173.8046875,98900.125,99468.3046875,99269.2890625,99354.2265625,99445.6015625,99555.2109375,99729.5546875,0.0
1762651847.3366659,99637.734375,99364.7734375,99931.96875,99733.3984375,99818.0703125,99909.796875,100019.6796875,100194.0234375,0.0
1762651847.3427513,99224.8515625,98951.53125,99518.8203125,99320.25,99405.0078125,99496.3828125,99606.171875,99780.3359375,0.0
1762651847.3428235,98496.453125,98223.046875,98790.515625,98591.40625,98676.609375,98767.890625,98877.4140625,99051.1328125,0.0
1762651847.3468533,99135.53125,98862.3046875,99430.0390625,99231.46875,99315.8671875,99407.421875,99517.03125,99690.84375,0.0
1762651847.3830252,99757.453125,99484.3125,100052.578125,99853.7421875,99937.9609375,100029.78125,100139.484375,100313.828125,0.0
1762651847.3831017,99491.4609375,99218.328125,99786.2421875,99587.3984375,99671.7109375,99763.3515625,99872.875,100047.3984375,0.0
1762651847.383126,98681.703125,98408.5703125,98976.296875,98777.015625,98862.0390625,98953.59375,99062.7578125,99236.7421875,0.0
1762651847.385688,99094.9453125,98821.625,99389.8046875,99190.6953125,99275.453125,99366.921875,99476.3515625,99650.515625,0.0
1762651847.385739,99859.640625,99586.328125,100154.234375,99955.9296875,100040.0625,100131.6171875,100241.5,100415.578125,0.0
1762651847.3879724,99735.8125,99462.40625,100030.2265625,99831.5703125,99915.7890625,100007.5234375,100117.578125,100291.65625,0.0
1762651847.3905923,98918.8984375,98645.4921875,99213.046875,99014.03125,99098.6953125,99190.34375,99299.6875,99473.8515625,0.0
1762651847.3907008,99065.078125,98791.5,99359.234375,99159.8515625,99244.96875,99336.5234375,99445.953125,99620.296875,0.0
1762651847.3965971,99932.6875,99659.4609375,100227.1015625,100028.265625,100112.84375,100204.5703125,100314.2734375,100488.6171875,0.0
1762651847.3966677,99949.9453125,99676.625,100244.453125,100046.0546875,100130.2734375,100221.5625,100331.890625,100506.234375,0.0
1762651847.3966887,99186.140625,98912.734375,99480.5546875,99281.625,99366.0234375,99457.6640625,99567.546875,99741.4453125,0.0
1762651847.3994043,99054.9765625,98781.9296875,99349.75,99150.46875,99235.2265625,99326.953125,99436.5703125,99610.2890625,0.0
1762651847.401975,99970.8671875,99697.546875,100265.546875,100066.7109375,100151.375,100242.84375,100352.5390625,100527.2421875,0.0
1762651847.404601,100138.140625,99864.734375,100433.0078125,100234.078125,100318.4765625,100409.8515625,100520.09375,100694.7890625,0.0
1762651847.4091997,99473.1328125,99200.0,99767.8203125,99568.625,99653.203125,99744.9296875,99854.7265625,100029.25,0.0
1762651847.411796,99088.0625,98815.0078125,99382.7421875,99183.1875,99268.125,99359.765625,99469.3828125,99643.7265625,0.0
1762651847.414391,99985.2578125,99712.03125,100280.2109375,100081.1015625,100165.7734375,100257.1484375,100367.0234375,100541.9921875,0.0
1762651847.4144683,100304.0859375,100031.125,100599.5703125,100400.5546875,100485.046875,100576.2421875,100686.4765625,100861.4453125,0.0
1762651847.4177687,99764.515625,99491.109375,100059.375,99860.5390625,99945.296875,100036.6640625,100146.7265625,100321.1640625,0.0
1762651847.453051,99168.9765625,98895.7421875,99463.9296875,99264.640625,99349.484375,99441.484375,99550.7421875,99725.0859375,0.0
1762651847.453127,99967.5546875,99694.1484375,100262.421875,100063.3125,100148.0703125,100239.890625,100349.7734375,100524.1171875,0.0
1762651847.4643354,100449.28125,100175.9609375,100744.234375,100545.6640625,100630.328125,100721.796875,100831.9453125,101006.2890625,0.0
1762651847.4644096,100048.3828125,99775.421875,100343.78125,100144.40625,100229.3359375,100320.984375,100431.1328125,100605.4765625,0.0
1762651847.4644332,99306.9296875,99033.609375,99601.4375,99402.5,99487.0859375,99578.9921875,99688.6953125,99862.7734375,0.0
1762651847.4644525,99927.4140625,99654.3671875,100222.453125,100023.5234375,100107.8359375,100199.5703125,100309.625,100483.5234375,0.0
1762651847.4719026,100562.203125,100289.5078125,100857.515625,100658.5859375,100743.1640625,100834.8046875,100944.8671875,101118.9375,0.0
1762651847.4720042,100307.8359375,100035.0546875,100603.0625,100404.1328125,100488.6171875,100580.6171875,100690.4140625,100864.578125,0.0
1762651847.4720259,99493.4296875,99220.1171875,99788.1171875,99588.828125,99673.5859375,99765.2265625,99875.109375,100049.0078125,0.0
1762651847.4742925,99882.2578125,99609.03125,100177.0390625,99978.1953125,100062.4140625,100154.4140625,100264.03125,100438.375,0.0
1762651847.477003,100658.2265625,100384.8203125,100953.0859375,100754.78125,100838.9140625,100930.46875,101040.6171875,101215.3203125,0.0
1762651847.4770796,100544.765625,100271.6328125,100839.8125,100641.5078125,100725.4609375,100816.7421875,100927.1640625,101101.7734375,0.0
1762651847.4821196,99730.1796875,99457.1328125,100024.59375,99825.9375,99910.6015625,100002.0703125,100112.0390625,100285.9375,0.0
1762651847.4842107,99853.203125,99579.9765625,100147.53125,99949.140625,100033.5390625,100125.2734375,100234.8828125,100408.8671875,0.0
1762651847.4894617,100729.390625,100455.984375,101024.1640625,100826.0390625,100909.90625,101001.640625,101111.609375,101286.1328125,0.0
1762651847.491578,100755.9453125,100482.8046875,101050.5390625,100852.5078125,100936.8203125,101028.015625,101138.1640625,101312.859375,0.0
1762651847.4943104,99996.5234375,99723.3828125,100290.9375,100092.3671875,100177.0390625,100268.3203125,100378.2890625,100552.8125,0.0
1762651847.4965432,99842.1171875,99568.890625,100136.8046875,99938.0546875,100022.5390625,100114.2734375,100224.0625,100398.5,0.0
1762651847.4993804,100758.71875,100485.3125,101053.4921875,100854.921875,100939.5,101030.9609375,101141.0234375,101315.6328125,0.0
1762651847.4994557,100938.15625,100664.484375,101232.84375,101034.453125,101118.671875,101210.1328125,101320.4609375,101494.8984375,0.0
1762651847.5017705,100282.1796875,100008.5078125,100576.4140625,100378.46875,100462.515625,100554.15625,100664.125,100838.46875,0.0
1762651847.5057857,99876.8984375,99603.3125,100171.3125,99972.7421875,100057.234375,100149.0546875,100258.484375,100433.0078125,0.0
1762651847.514112,100769.0,100495.859375,101064.1328125,100865.5625,100949.6953125,101041.6015625,101151.390625,101326.09375,0.0
1762651847.514182,101102.21875,100828.8125,101397.53125,101199.140625,101283.1796875,101374.8203125,101484.8828125,101659.2265625,0.0
1762651847.5165534,100573.734375,100300.0625,100868.421875,100670.1171875,100754.3359375,100845.890625,100956.0390625,101130.203125,0.0
1762651847.5228896,99962.4609375,99688.6953125,100256.96875,100058.3046875,100142.8828125,100234.4375,100344.140625,100518.5703125,0.0
1762651847.556434,100745.0390625,100471.71875,101040.0859375,100841.78125,100925.734375,101017.28125,101127.2578125,101302.046875,0.0
1762651847.556481,101237.1328125,100964.53125,101532.7109375,101334.3203125,101418.359375,101509.9140625,101620.15625,101795.125,0.0
1762651847.5592852,100850.71875,100577.9375,101146.03125,100947.453125,101031.5859375,101123.140625,101233.203125,101407.90625,0.0
1762651847.5593622,100099.0703125,99825.7578125,100394.0234375,100195.1875,100279.8515625,100371.3203125,100481.0234375,100655.2734375,0.0
1762651847.5905385,100702.9296875,100430.234375,100998.421875,100799.84375,100884.421875,100975.53125,101085.765625,101260.46875,0.0
1762651847.5955236,101350.234375,101077.8125,101645.90625,101447.5078125,101531.8203125,101622.9296875,101733.4296875,101908.2265625,0.0
1762651847.598043,101107.9453125,100835.0703125,101403.078125,101204.5,101288.9921875,101380.3671875,101491.0546875,101665.3046875,0.0
1762651847.6005237,100290.8515625,100017.890625,100585.8046875,100386.9609375,100471.3671875,100563.0078125,100673.421875,100847.5,0.0
1762651847.6030438,100658.4921875,100385.8046875,100953.5390625,100754.78125,100839.5390625,100930.9140625,101040.9765625,101215.6796875,0.0
1762651847.607648,101444.0234375,101170.9765625,101739.2421875,101541.1171875,101625.0703125,101716.1796875,101827.0390625,102001.921875,0.0
1762651847.6107228,101344.3359375,101071.109375,101639.6484375,101441.1640625,101525.46875,101616.4921875,101727.4453125,101902.140625,0.0
1762651847.615969,100532.4296875,100259.46875,100827.828125,100629.1640625,100713.4765625,100804.765625,100915.5390625,101089.8828125,0.0
1762651847.6183205,100628.71875,100355.5859375,100924.03125,100725.3671875,100809.5,100901.3203125,101011.7421875,101185.8125,0.0
1762651847.6603916,101509.828125,101237.046875,101805.5859375,101607.1015625,101691.140625,101782.875,101893.203125,102067.8125,0.0
1762651847.663077,101551.8515625,101279.421875,101847.609375,101649.2109375,101733.1640625,101824.8984375,101935.40625,102110.1953125,0.0
1762651847.665269,100801.546875,100529.125,101096.859375,100898.28125,100982.859375,101074.4140625,101184.8359375,101359.265625,0.0
1762651847.6683583,100619.6015625,100346.8203125,100914.9140625,100716.4296875,100801.09375,100892.5625,101002.53125,101177.3203125,0.0
1762651847.670133,101537.6328125,101264.671875,101833.3046875,101635.0,101719.484375,101810.6796875,101921.3671875,102096.15625,0.0
1762651847.6730328,101731.375,101458.59375,102027.2265625,101829.0078125,101912.9609375,102004.3359375,102115.3828125,102289.546875,0.0
1762651847.6731074,101084.9609375,100812.09375,101380.2734375,101181.8828125,101266.015625,101357.5625,101468.1640625,101642.59375,0.0
1762651847.6755636,100656.703125,100383.296875,100951.4765625,100752.8203125,100837.125,100928.5,101039.28125,101213.53125,0.0
1762651847.6780748,101541.390625,101268.0703125,101836.6953125,101638.484375,101722.4375,101813.6328125,101924.765625,102099.1953125,0.0
1762651847.67815,101890.25,101617.0234375,102186.0078125,101987.703125,102071.484375,102162.5859375,102273.71875,102448.15625,0.0
1762651847.6804512,101375.265625,101101.953125,101670.578125,101472.1875,101555.9609375,101647.515625,101758.1953125,101932.8125,0.0
1762651847.683038,100746.9140625,100473.2421875,101041.9609375,100842.9375,100927.6953125,101018.984375,101129.4921875,101303.7421875,0.0
1762651847.683113,101511.4375,101238.296875,101807.1015625,101608.171875,101692.6640625,101783.6796875,101894.7265625,102069.3359375,0.0
1762651847.6854496,102019.0859375,101745.859375,102314.671875,102116.453125,102200.046875,102291.421875,102402.6484375,102577.34375,0.0
1762651847.688072,101640.453125,101367.3125,101936.03125,101737.7265625,101821.40625,101912.6953125,102023.9140625,102198.3515625,0.0
1762651847.690451,100881.1171875,100607.9765625,101176.25,100977.40625,101061.984375,101153.5390625,101264.1328125,101438.03125,0.0
1762651847.693034,101461.546875,101188.8515625,101756.859375,101558.375,101642.59375,101733.8828125,101844.7421875,102019.625,0.0
1762651847.6954138,102121.8203125,101848.765625,102417.484375,102219.09375,102303.1328125,102394.328125,102505.1953125,102680.609375,0.0
1762651847.7115335,101891.859375,101618.8125,102187.53125,101988.8671875,102073.1796875,102164.2890625,102274.96875,102450.03125,0.0
1762651847.7141857,101073.7890625,100800.46875,101369.3671875,101170.5234375,101254.9296875,101346.3046875,101456.5390625,101631.1484375,0.0
1762651847.7164392,101418.2734375,101145.046875,101714.03125,101515.1875,101599.5,101690.7890625,101801.203125,101976.171875,0.0
1762651847.7190487,102211.4921875,101938.4453125,102507.0703125,102308.765625,102392.71875,102484.0078125,102594.8671875,102769.9296875,0.0
1762651847.7217755,102122.7109375,101849.75,102418.46875,102219.984375,102304.2109375,102395.4921875,102506.625,102681.328125,0.0
1762651847.7244403,101312.6875,101039.546875,101608.265625,101409.0625,101493.734375,101584.9296875,101695.8828125,101870.40625,0.0
1762651847.7291677,101387.7890625,101114.3828125,101683.453125,101484.5234375,101568.7421875,101660.1171875,101770.71875,101945.6875,0.0
1762651847.732891,102276.7578125,102003.4453125,102572.515625,102374.3046875,102457.984375,102549.2734375,102660.046875,102835.5546875,0.0
1762651847.7329636,102331.296875,102058.15625,102627.0546875,102428.75,102512.6171875,102603.6328125,102714.671875,102890.1796875,0.0
1762651847.7329843,101585.734375,101312.59375,101881.3125,101683.0078125,101766.9609375,101857.796875,101969.109375,102143.546875,0.0
1762651847.736579,101380.2734375,101106.8671875,101675.765625,101477.28125,101561.328125,101652.6953125,101763.3828125,101937.7265625,0.0
1762651847.736652,102298.9296875,102025.4375,102594.6015625,102396.1171875,102480.1640625,102571.359375,102682.3984375,102857.28125,0.0
1762651847.7366736,102505.640625,102232.5,102801.4921875,102603.71875,102687.140625,102778.0625,102889.1953125,103064.1640625,0.0
1762651847.7404785,101868.4375,101595.296875,102163.9296875,101965.625,102049.484375,102140.5,102251.4609375,102426.25,0.0
1762651847.7405431,101417.734375,101144.421875,101712.8671875,101514.3828125,101598.515625,101689.8046875,101800.6640625,101975.28125,0.0
1762651847.7405567,102295.265625,102022.0390625,102590.9375,102392.8125,102476.765625,102567.9609375,102678.640625,102853.7890625,0.0
1762651847.7405667,102656.1171875,102382.796875,102952.046875,102754.1015625,102837.6953125,102928.5390625,103040.1171875,103215.0859375,0.0
1762651847.7431493,102151.765625,101878.453125,102447.2578125,102249.3125,102332.8203125,102423.8359375,102535.4140625,102710.203125,0.0
1762651847.743225,101509.6484375,101235.796875,101804.6015625,101606.2109375,101690.0703125,101781.625,101892.4921875,102067.0078125,0.0
1762651847.7453656,102264.5078125,101990.75,102560.1796875,102361.3359375,102445.109375,102536.484375,102647.53125,102821.9609375,0.0
1762651847.7454178,102785.125,102511.8125,103080.9765625,102882.4921875,102966.265625,103057.546875,103168.7734375,103343.5625,0.0
1762651847.7479753,102421.1484375,102148.1953125,102716.734375,102519.0546875,102602.5546875,102693.6640625,102804.9765625,102979.765625,0.0
1762651847.7507048,101652.7890625,101379.7421875,101948.1875,101750.421875,101834.109375,101925.390625,102036.1640625,102211.2265625,0.0
1762651847.75078,102215.78125,101942.828125,102511.6328125,102313.59375,102396.921875,102488.65625,102599.25,102774.578125,0.0
1762651847.752959,102889.375,102616.234375,103184.953125,102987.2734375,103070.515625,103162.0703125,103273.0234375,103448.4375,0.0
1762651847.755564,102671.1328125,102397.90625,102966.53125,102768.859375,102852.09375,102943.9140625,103054.78125,103230.015625,0.0
1762651847.758031,101851.8984375,101578.8515625,102147.390625,101949.0859375,102032.859375,102124.5859375,102235.1875,102410.2421875,0.0
1762651847.7604673,102170.546875,101897.765625,102466.484375,102268.0,102352.0390625,102443.4140625,102554.546875,102729.4296875,0.0
1762651847.7630737,102975.03125,102701.890625,103270.7890625,103073.1953125,103156.4375,103247.984375,103359.296875,103534.1796875,0.0
1762651847.76315,102898.8515625,102625.359375,103194.5234375,102997.203125,103080.3515625,103171.3671875,103282.765625,103458.0078125,0.0
1762651847.7692275,102091.8671875,101818.7265625,102387.1796875,102189.5859375,102273.09375,102364.375,102475.2421875,102650.390625,0.0
1762651847.7764273,102135.9453125,101862.984375,102432.0625,102233.84375,102317.4375,102408.8125,102519.40625,102695.0078125,0.0
1762651847.7764728,103027.1484375,102753.921875,103323.359375,103125.5,103208.6484375,103299.9296875,103411.15625,103586.75,0.0
1762651847.8105512,103094.2109375,102820.890625,103390.234375,103192.46875,103275.6171875,103366.71875,103477.9453125,103653.625,0.0
1762651847.8106692,102360.53125,102086.9453125,102656.46875,102458.2578125,102541.5859375,102632.78125,102743.640625,102919.328125,0.0
1762651847.8142953,102133.53125,101860.125,102429.5546875,102231.34375,102314.7578125,102406.3984375,102517.4453125,102692.3203125,0.0
1762651847.81437,103047.625,102774.3125,103343.828125,103146.328125,103229.390625,103320.40625,103431.8046875,103607.40625,0.0
1762651847.8143947,103266.140625,102992.4609375,103561.8046875,103364.484375,103447.546875,103538.3828125,103649.875,103825.46875,0.0
1762651847.8208256,102643.6875,102370.4609375,102939.53125,102741.8515625,102825.1796875,102916.46875,103027.6875,103203.015625,0.0
1762651847.8208883,102175.015625,101901.6953125,102470.7734375,102272.734375,102356.0625,102447.5234375,102558.2109375,102733.453125,0.0
1762651847.820907,103042.7109375,102768.859375,103338.109375,103140.4296875,103223.578125,103314.7734375,103426.0859375,103601.6796875,0.0
1762651847.823154,103417.328125,103144.1875,103713.3515625,103515.7578125,103598.734375,103690.015625,103801.328125,103976.8359375,0.0
1762651847.8232293,102926.8359375,102653.875,103223.1328125,103025.09375,103108.515625,103199.7109375,103310.75,103485.9921875,0.0
1762651847.8257515,102271.6640625,101998.796875,102567.6015625,102369.5625,102453.0703125,102544.3515625,102655.3125,102830.1875,0.0
1762651847.8278239,103014.28125,102741.2265625,103310.3046875,103112.7109375,103195.859375,103287.1484375,103398.640625,103573.6953125,0.0
1762651847.8317883,103549.46875,103276.328125,103845.671875,103648.265625,103731.4140625,103822.515625,103934.09375,104109.6953125,0.0
1762651847.8407571,103198.7265625,102925.765625,103494.6640625,103297.25,103380.6640625,103471.59375,103582.9921875,103758.4140625,0.0
1762651847.8408327,102424.1015625,102151.3203125,102720.0390625,102522.0,102605.5078125,102696.96875,102807.8359375,102983.25,0.0
1762651847.8428004,102965.640625,102692.3203125,103261.578125,103063.71875,103146.9609375,103238.328125,103349.4609375,103525.2421875,0.0
1762651847.842906,103650.5859375,103377.2734375,103946.5234375,103749.0234375,103831.9921875,103923.3671875,104034.859375,104210.6328125,0.0
1762651847.8793066,103446.46875,103173.2421875,103742.5859375,103545.0,103628.234375,103719.5234375,103830.7421875,104006.4296875,0.0
1762651847.879382,102625.0859375,102352.0390625,102921.296875,102723.5234375,102806.8515625,102898.3203125,103008.8203125,103184.421875,0.0
1762651847.8817744,102919.328125,102646.4609375,103215.53125,103017.8515625,103101.1796875,103192.46875,103303.1484375,103478.75,0.0
1762651847.884298,103733.2890625,103460.328125,104029.765625,103831.9921875,103915.4140625,104006.515625,104117.5625,104293.6015625,0.0
1762651847.8867445,103669.1875,103396.2265625,103965.65625,103767.796875,103851.21875,103942.140625,104053.7265625,104229.40625,0.0
1762651847.8894477,102868.8125,102596.125,103165.5546875,102967.515625,103051.0234375,103142.0390625,103252.90625,103428.765625,0.0
1762651847.8919408,102885.3515625,102612.75,103182.1875,102984.234375,103067.65625,103158.578125,103269.359375,103445.484375,0.0
1762651847.894366,103780.765625,103508.0703125,104077.6875,103880.359375,103963.2421875,104053.9921875,104165.390625,104341.6171875,0.0
1762651847.896767,103862.75,103589.8828125,104159.4921875,103962.2578125,104045.3203125,104135.890625,104247.2890625,104423.2421875,0.0
1762651847.8990617,103136.140625,102863.5390625,103433.2421875,103235.3828125,103318.4375,103409.7265625,103520.859375,103696.5390625,0.0
1762651847.9018173,102885.0859375,102612.5703125,103182.1875,102984.1484375,103067.203125,103158.7578125,103269.625,103445.1328125,0.0
1762651847.9018931,103798.734375,103526.21875,104095.65625,103898.2421875,103981.0390625,104072.0546875,104183.5390625,104359.140625,0.0
1762651847.9064536,104032.0,103759.3046875,104329.0078125,104131.328125,104214.03125,104305.2265625,104416.984375,104592.671875,0.0
1762651847.911812,103419.828125,103147.1328125,103716.65625,103518.890625,103601.859375,103693.234375,103804.546875,103980.5,0.0
1762651847.911887,102930.4140625,102657.8125,103226.796875,103028.8515625,103112.1796875,103203.640625,103314.5078125,103490.1015625,0.0
1762651847.9143348,103789.171875,103516.8359375,104085.8203125,103888.3203125,103971.2890625,104062.578125,104173.8828125,104349.75,0.0
1762651847.9165351,104180.0546875,103907.8125,104476.796875,104279.4765625,104362.265625,104453.1015625,104564.953125,104741.265625,0.0
1762651847.9193845,103702.4453125,103429.9296875,103999.0078125,103801.5078125,103884.4765625,103975.7578125,104087.0703125,104263.0234375,0.0
1762651847.9194598,103032.515625,102759.828125,103329.078125,103131.21875,103214.015625,103305.390625,103416.875,103592.1171875,0.0
1762651847.921478,103760.203125,103487.421875,104057.1171875,103859.265625,103942.140625,104032.890625,104144.828125,104320.2421875,0.0
1762651847.9577427,104309.25,104036.375,104606.2578125,104408.8515625,104491.546875,104582.5625,104694.4140625,104870.6328125,0.0
1762651847.9577868,103971.109375,103698.2421875,104267.9453125,104070.265625,104153.234375,104244.609375,104356.1015625,104532.140625,0.0
1762651847.9577963,103187.90625,102914.9453125,103484.3828125,103286.5234375,103369.578125,103461.1328125,103572.265625,103747.953125,0.0
1762651847.9602792,103707.8984375,103435.296875,104004.640625,103807.140625,103889.9296875,103981.390625,104092.703125,104268.75,0.0
1762651847.9626493,104403.5703125,104131.1484375,104700.7578125,104503.6171875,104586.234375,104677.25,104788.9140625,104965.3203125,0.0
1762651847.9652889,104210.453125,103937.3125,104507.28125,104309.875,104392.7578125,104483.7734375,104595.4375,104771.6640625,0.0
1762651847.968104,103387.1953125,103114.3203125,103683.578125,103485.8984375,103569.40625,103660.3359375,103771.734375,103947.5078125,0.0
1762651847.9702075,103657.203125,103384.421875,103953.765625,103756.265625,103839.59375,103930.5234375,104042.1015625,104217.875,0.0
1762651847.9729764,104481.625,104208.6640625,104778.28125,104581.046875,104663.5703125,104754.671875,104866.8828125,105042.7421875,0.0
1762651847.9753103,104431.375,104158.7734375,104728.1171875,104531.15625,104613.6796875,104704.4296875,104816.8125,104992.765625,0.0
1762651847.9779067,103632.8828125,103359.8359375,103928.9140625,103731.234375,103814.2890625,103905.0390625,104016.890625,104192.9296875,0.0
1762651847.9805923,103628.7734375,103355.546875,103925.0703125,103727.390625,103810.359375,103900.8359375,104013.1328125,104188.90625,0.0
1762651847.9806664,104530.7109375,104257.75,104827.359375,104629.953125,104712.4765625,104803.671875,104915.875,105092.09375,0.0
1762651847.9826596,104624.9453125,104351.625,104921.2421875,104724.0078125,104806.53125,104897.8125,105009.9296875,105186.0625,0.0
1762651847.9854555,103907.3671875,103633.8671875,104203.5703125,104005.7109375,104088.59375,104179.6953125,104291.6328125,104467.5,0.0
1762651847.9855072,103631.6328125,103358.3125,103927.9296875,103729.984375,103813.1328125,103903.875,104015.6328125,104191.5859375,0.0
1762651848.0303743,104543.5859375,104270.7109375,104840.0546875,104642.5546875,104725.171875,104816.1875,104928.5703125,105104.5234375,0.0
1762651848.0365052,104787.578125,104515.328125,105084.5859375,104887.53125,104969.515625,105060.890625,105173.1015625,105349.0546875,0.0
1762651848.0365512,104184.8828125,103912.1015625,104481.359375,104284.2109375,104366.828125,104457.84375,104569.6875,104745.375,0.0
1762651848.0365608,103679.5546875,103406.59375,103975.671875,103778.3515625,103861.5859375,103952.0703125,104064.1875,104239.5078125,0.0
1762651848.0365677,104532.046875,104259.359375,104828.4375,104631.2890625,104714.265625,104805.1015625,104917.125,105093.3515625,0.0
1762651848.0365734,104935.09375,104662.40625,105231.8359375,105034.6953125,105117.3984375,105208.234375,105320.4375,105496.75,0.0
1762651848.0365796,104469.109375,104196.5078125,104765.7578125,104568.53125,104651.2265625,104742.0703125,104854.5390625,105030.2265625,0.0
1762651848.043166,103782.734375,103509.59375,104079.1171875,103881.703125,103964.5859375,104055.5078125,104167.5390625,104343.046875,0.0
1762651848.043242,104492.625,104219.21875,104788.828125,104591.6875,104674.1171875,104764.953125,104877.25,105053.296875,0.0
1762651848.0432663,105055.6171875,104782.65625,105352.0,105155.125,105237.46875,105328.21875,105440.6953125,105617.0078125,0.0
1762651848.0451858,104729.4609375,104456.6796875,105026.0234375,104828.703125,104911.40625,105002.328125,105114.4453125,105290.671875,0.0
1762651848.0452304,103939.1015625,103666.3203125,104235.3984375,104037.71875,104120.9609375,104211.9765625,104323.5546875,104499.4140625,0.0
1762651848.0620124,104441.75,104169.234375,104738.578125,104540.8125,104623.875,104714.6171875,104826.828125,105002.5078125,0.0
1762651848.0646043,105151.8203125,104878.953125,105448.7421875,105251.5078125,105334.2109375,105424.5078125,105537.1640625,105713.5625,0.0
1762651848.06807,104971.21875,104698.078125,105268.046875,105070.8203125,105153.25,105244.359375,105356.3828125,105532.9609375,0.0
1762651848.0681458,104146.703125,103873.4765625,104443.265625,104245.5,104328.7421875,104419.6640625,104531.3359375,104707.46875,0.0
1762651848.0681765,104392.3984375,104119.078125,104689.140625,104491.546875,104574.34375,104665.265625,104777.296875,104953.421875,0.0
1762651848.0704439,105223.078125,104950.296875,105520.3515625,105323.3046875,105405.734375,105496.484375,105608.78125,105784.8203125,0.0
1762651848.0730183,105184.9921875,104912.296875,105482.1796875,105285.390625,105368.0078125,105458.484375,105570.6953125,105747.1796875,0.0
1762651848.0754616,104395.171875,104122.296875,104691.640625,104494.5859375,104577.203125,104668.3984375,104779.890625,104956.375,0.0
1762651848.077942,104364.5,104091.1875,104660.9765625,104463.8359375,104546.359375,104637.5546875,104749.1328125,104925.3515625,0.0
1762651848.0801785,105269.2109375,104996.25,105566.3125,105369.171875,105451.78125,105542.3515625,105654.734375,105830.953125,0.0
1762651848.0829194,105376.5859375,105104.2578125,105673.953125,105477.0859375,105559.15625,105650.171875,105762.46875,105938.6875,0.0
1762651848.082971,104668.578125,104396.0625,104965.3203125,104768.265625,104850.7890625,104941.8046875,105053.7421875,105230.140625,0.0
1762651848.1165197,104370.2265625,104097.53125,104666.609375,104469.375,104552.34375,104643.359375,104755.03125,104931.25,0.0
1762651848.1193216,105278.8671875,105006.4453125,105576.0546875,105378.9140625,105461.6171875,105552.359375,105664.65625,105841.1484375,0.0
1762651848.1194117,105540.1171875,105267.421875,105837.125,105640.25,105723.1328125,105813.4296875,105925.90625,106102.6640625,0.0
1762651848.1221697,104952.0859375,104679.2109375,105248.828125,105052.1328125,105134.8359375,105225.2265625,105337.609375,105514.0078125,0.0
1762651848.1242347,104426.015625,104153.6796875,104722.484375,104525.6171875,104608.671875,104699.1484375,104811.4453125,104987.578125,0.0
1762651848.1267216,105268.4921875,104996.25,105565.5078125,105368.8125,105451.6875,105541.90625,105654.9140625,105830.953125,0.0
1762651848.1294656,105686.296875,105413.875,105983.5703125,105786.875,105869.3984375,105959.8828125,106072.53125,106249.109375,0.0
1762651848.131492,105230.765625,104958.25,105527.59375,105330.8125,105413.421875,105504.171875,105616.375,105792.8671875,0.0
1762651848.1344235,104534.109375,104261.59375,104831.1171875,104633.703125,104716.765625,104807.3359375,104919.5390625,105095.7578125,0.0
1762651848.1365087,105226.1171875,104953.6015625,105523.3984375,105326.5234375,105409.046875,105499.609375,105612.0,105788.3984375,0.0
1762651848.1391788,105801.6328125,105528.9375,106098.546875,105901.9453125,105984.2890625,106074.859375,106187.421875,106363.734375,0.0
1762651848.13923,105490.40625,105217.4453125,105787.1484375,105590.2734375,105672.703125,105763.1875,105875.8359375,106051.96875,0.0
1762651848.144264,104693.609375,104420.7421875,104990.2578125,104792.9375,104875.734375,104966.390625,105078.953125,105254.7265625,0.0
1762651848.146534,105170.328125,104898.171875,105467.6953125,105270.375,105352.984375,105443.640625,105556.2109375,105732.25,0.0
1762651848.1465797,105891.6640625,105619.2421875,106188.671875,105991.9765625,106074.3203125,106164.890625,106277.546875,106453.8515625,0.0
1762651848.1532447,105722.953125,105450.53125,106019.9609375,105823.1796875,105905.609375,105996.09375,106109.0078125,106285.0546875,0.0
1762651848.160427,104898.4375,104625.9296875,105195.453125,104998.21875,105080.828125,105171.578125,105283.9609375,105460.3671875,0.0
1762651848.160502,105119.9921875,104847.2109375,105416.9140625,105219.859375,105302.2890625,105392.859375,105505.6953125,105682.0,0.0
1762651848.1642683,105959.1640625,105686.4765625,106256.265625,106059.390625,106141.9140625,106232.5703125,106345.3125,106521.984375,0.0
1762651848.1643443,105931.4453125,105658.9375,106228.90625,106031.765625,106114.375,106204.9453125,106317.5078125,106493.90625,0.0
1762651848.1704257,105144.84375,104872.3359375,105441.9453125,105244.8046875,105327.59375,105418.1640625,105530.1015625,105706.6796875,0.0
1762651848.170474,105088.25,104815.7421875,105385.2578125,105188.03125,105270.8203125,105361.5703125,105473.5078125,105650.0859375,0.0
1762651848.174279,105995.1953125,105723.0390625,106292.65625,106095.8671875,106178.3046875,106268.78125,106381.5234375,106558.1953125,0.0
1762651848.2063873,106114.375,105841.953125,106411.8359375,106214.8671875,106297.2109375,106387.9609375,106501.0625,106677.375,0.0
1762651848.231422,105414.40625,105141.5390625,105711.5078125,105514.546875,105597.0703125,105687.90625,105800.109375,105976.5078125,0.0
1762651848.2314923,105092.0078125,104819.3125,105389.1953125,105192.234375,105275.109375,105365.5,105477.796875,105653.9296875,0.0
1762651848.231514,105996.71875,105724.46875,106294.4375,106097.7421875,106180.265625,106270.5703125,106383.3984375,106559.625,0.0
1762651848.235561,106268.3359375,105996.265625,106565.96875,106369.5390625,106451.6171875,106542.2734375,106655.2890625,106831.6015625,0.0
1762651848.2380157,105689.6015625,105417.5390625,105987.328125,105790.3671875,105872.53125,105963.28125,106076.109375,106252.2421875,0.0
1762651848.240518,105144.3125,104872.421875,105441.9453125,105244.8046875,105327.328125,105418.0703125,105530.546875,105706.4140625,0.0
1762651848.2455556,105974.5390625,105702.296875,106272.1796875,106074.9453125,106157.203125,106247.953125,106360.8671875,106537.359375,0.0
1762651848.2477343,106404.9453125,106132.2578125,106702.40625,106505.7109375,106587.7890625,106678.53125,106791.1875,106968.125,0.0
1762651848.2505147,105962.828125,105690.140625,106259.84375,106063.234375,106145.578125,106236.5078125,106348.625,106525.3828125,0.0
1762651848.2530794,105253.7421875,104981.140625,105550.578125,105353.7890625,105436.2265625,105527.1484375,105639.53125,105815.6640625,0.0
1762651848.255453,105926.9765625,105654.375,106224.2578125,106027.203125,106109.7265625,106200.65625,106313.3984375,106489.6171875,0.0
1762651848.2581992,106516.53125,106244.015625,106814.25,106617.6484375,106699.6328125,106790.3828125,106903.3046875,107080.0625,0.0
1762651848.2664251,106217.1953125,105944.9453125,106514.828125,106318.1328125,106400.5703125,106490.9609375,106603.875,106780.6328125,0.0
1762651848.2690096,105416.375,105144.21875,105713.7421875,105516.6875,105599.2109375,105689.6953125,105802.703125,105979.015625,0.0
1762651848.271758,105871.3671875,105599.3046875,106168.9140625,105972.3984375,106054.203125,106145.0390625,106257.78125,106434.359375,0.0
1762651848.27426,106604.7734375,106332.53125,106902.40625,106705.984375,106787.7890625,106878.71875,106991.3671875,107168.390625,0.0
1762651848.2766972,106450.546875,106178.03125,106748.2734375,106551.578125,106633.5625,106724.21875,106837.140625,107013.9921875,0.0
1762651848.2767673,105628.09375,105355.4921875,105925.28125,105728.4921875,105811.1953125,105901.5,106013.8828125,106190.7265625,0.0
1762651848.27912,105824.4296875,105551.9140625,106121.796875,105924.8359375,106007.265625,106097.65625,106210.578125,106387.2421875,0.0
1762651848.2813404,106672.0078125,106399.5859375,106969.8203125,106773.21875,106855.0234375,106945.7734375,107059.140625,107235.625,0.0
1762651848.2813587,106658.59375,106386.171875,106956.4140625,106759.890625,106841.8828125,106932.453125,107045.7265625,107222.21875,0.0
1762651848.2842553,105878.5234375,105606.09375,106176.0625,105979.1015625,106061.625,106152.4609375,106264.578125,106441.15625,0.0
1762651848.28655,105796.53125,105524.0234375,106093.71875,105897.0234375,105979.4609375,106069.9375,106182.4140625,106358.9921875,0.0
1762651848.2866225,106705.7109375,106433.203125,107003.4375,106807.1875,106888.90625,106979.5703125,107092.3984375,107269.421875,0.0
1762651848.289309,106839.46875,106566.8671875,107137.015625,106941.03125,107022.6640625,107113.5,107226.2421875,107403.359375,0.0
1762651848.289386,106148.796875,105876.109375,106445.71875,106249.3828125,106331.8125,106422.3828125,106535.0390625,106711.6171875,0.0
1762651848.29186,105805.828125,105533.140625,106102.6640625,105906.0546875,105988.4921875,106079.2421875,106191.984375,106368.2890625,0.0
1762651848.2919347,106707.140625,106434.8125,107004.5078125,106808.53125,106890.25,106980.640625,107093.921875,107270.8515625,0.0
1762651848.2964246,106991.4609375,106719.2109375,107289.0078125,107092.6640625,107175.0078125,107265.1328125,107378.59375,107555.5234375,0.0
1762651848.3005,106424.078125,106151.9296875,106721.4453125,106524.9296875,106607.3671875,106697.9375,106810.765625,106987.4375,0.0
1762651848.3005772,105862.6953125,105590.6328125,106159.9765625,105963.453125,106045.9765625,106136.7265625,106249.109375,106425.6875,0.0
1762651848.3080075,106681.75,106409.328125,106979.7421875,106783.140625,106865.3046875,106955.875,107068.703125,107245.5546875,0.0
1762651848.3414633,107127.8046875,106855.109375,107425.7109375,107229.4609375,107311.359375,107402.015625,107515.0234375,107691.9609375,0.0
1762651848.3415153,106697.3125,106424.9765625,106995.2109375,106798.7890625,106880.859375,106971.34375,107084.6171875,107261.1953125,0.0
1762651848.3717856,105976.1484375,105703.7265625,106273.6953125,106077.2734375,106159.5234375,106250.09375,106362.9296875,106539.234375,0.0
1762651848.3718617,106634.1015625,106361.765625,106931.9140625,106736.0234375,106817.6484375,106908.3125,107021.140625,107197.71875,0.0
1762651848.3781946,107238.578125,106965.9765625,107536.6640625,107340.6796875,107422.3984375,107512.5234375,107625.9765625,107802.828125,0.0
1762651848.3805108,106952.03125,106679.609375,107249.9296875,107053.8671875,107135.671875,107225.8828125,107339.4296875,107516.2734375,0.0
1762651848.3829398,106145.6640625,105873.6015625,106443.6640625,106247.0546875,106329.0390625,106419.5234375,106532.625,106709.109375,0.0
1762651848.385546,106577.5,106304.9921875,106875.40625,106678.8046875,106760.6953125,106851.359375,106964.3671875,107141.0390625,0.0
1762651848.3879998,107322.53125,107050.46875,107620.796875,107424.546875,107506.171875,107596.921875,107710.203125,107887.046875,0.0
1762651848.3902092,107178.6796875,106906.96875,107477.296875,107280.78125,107362.5,107452.9765625,107566.5234375,107743.3671875,0.0
1762651848.3951342,106355.5078125,106083.9765625,106653.6796875,106457.0703125,106539.1484375,106629.5390625,106742.8203125,106919.3984375,0.0
1762651848.3977592,106528.421875,106256.3515625,106826.140625,106629.8046875,106711.6171875,106801.9140625,106915.640625,107091.953125,0.0
1762651848.4005203,107386.9921875,107115.015625,107685.2578125,107488.828125,107570.8125,107660.8515625,107774.5703125,107951.6875,0.0
1762651848.4032943,107384.4921875,107112.421875,107683.0234375,107486.328125,107568.1328125,107658.34375,107771.984375,107949.0078125,0.0
1762651848.4056623,106608.2578125,106336.015625,106906.078125,106709.375,106791.2734375,106881.84375,106995.125,107171.34375,0.0
1762651848.4343216,106500.34375,106228.1015625,106797.890625,106601.5546875,106683.453125,106774.0234375,106887.1171875,107063.609375,0.0
