timestamps,Fz,C3,Cz,C4,Pz,PO7,Oz,PO8,stim
1771964112.5781116,270408.09375,710710.0625,711230.8125,711253.625,711116.5,711143.375,711488.5,711841.6875,0.0
1771964112.5805893,270396.21875,710910.25,711431.375,711454.0625,711316.5625,711343.5625,711688.875,712042.0625,0.0
1771964112.583558,270280.4375,710841.1875,711362.5625,711385.25,711247.375,711274.75,711620.0625,711973.375,0.0
1771964112.5836515,270281.6875,710635.8125,711157.1875,711179.625,711042.1875,711069.375,711414.9375,711767.8125,0.0
1771964112.6381865,270385.40625,710681.375,711202.5,711224.875,711087.625,711114.6875,711460.375,711813.0625,0.0
1771964112.6417148,270396.75,710891.625,711412.8125,711435.4375,711298.1875,711325.375,711671.0,712023.625,0.0
1771964112.6417544,270293.5,710880.625,711401.8125,711424.125,711287.1875,711314.1875,711659.8125,712012.6875,0.0
1771964112.6417754,270267.90625,710666.75,711187.75,711210.0,711073.25,711100.5625,711445.75,711798.6875,0.0
1771964112.6458423,270369.65625,710656.25,711177.375,711199.4375,711062.5,711089.6875,711435.125,711787.875,0.0
1771964112.6458902,270409.4375,710866.625,711388.0,711409.9375,711272.9375,711299.875,711645.4375,711998.25,0.0
1771964112.64591,270318.875,710911.8125,711433.1875,711455.5,711318.3125,711345.125,711690.75,712043.75,0.0
1771964112.6459248,270266.84375,710707.1875,711228.8125,711251.0625,711114.1875,711140.875,711486.125,711839.1875,0.0
1771964112.6494057,270358.9375,710640.75,711162.4375,711184.6875,711047.75,711074.625,711420.1875,711772.8125,0.0
1771964112.6494431,270420.90625,710836.0,711357.625,711380.125,711243.25,711269.8125,711615.5,711968.0625,0.0
1771964112.649462,270341.9375,710932.0625,711453.625,711476.25,711339.1875,711365.75,711711.125,712063.6875,0.0
1771964112.6515615,270275.96875,710748.5,711269.5625,711292.0625,711155.3125,711182.125,711527.125,711879.6875,0.0
1771964112.6544645,270356.96875,710633.0625,711154.5,711176.8125,711040.0625,711066.8125,711412.0625,711764.8125,0.0
1771964112.6565807,270434.9375,710799.5625,711320.9375,711343.25,711206.5,711233.25,711578.625,711931.25,0.0
1771964112.6592515,270370.46875,710942.4375,711463.8125,711486.0,711349.125,711375.9375,711721.0625,712074.25,0.0
1771964112.6592867,270277.21875,710793.1875,711314.25,711336.875,711199.3125,711226.125,711571.75,711924.375,0.0
1771964112.664968,270326.46875,710632.375,711152.875,711175.875,711038.375,711065.375,711410.75,711763.25,0.0
1771964112.6672368,270421.25,710762.8125,711283.75,711306.6875,711169.3125,711196.125,711541.4375,711894.4375,0.0
1771964112.6696615,270393.625,710943.5625,711464.625,711487.25,711349.75,711376.5625,711722.125,712075.125,0.0
1771964112.6715949,270290.375,710837.25,711358.0625,711380.625,711243.5625,711270.375,711615.8125,711968.75,0.0
1771964112.6747048,270314.6875,710643.25,711164.4375,711187.0625,711049.875,711076.8125,711422.375,711775.125,0.0
1771964112.67478,270421.34375,710726.9375,711248.75,711271.25,711134.0,711160.6875,711506.3125,711859.125,0.0
1771964112.6767924,270415.4375,710930.5,711451.9375,711474.3125,711337.25,711364.0,711709.4375,712062.25,0.0
1771964112.6796694,270308.0625,710874.625,711395.625,711418.75,711281.5625,711307.9375,711653.625,712006.5625,0.0
1771964112.686658,270305.1875,710665.8125,711186.6875,711209.8125,711072.5,711098.9375,711444.8125,711797.625,0.0
1771964112.7173493,270404.625,710697.375,711218.3125,711241.125,711104.3125,711130.6875,711476.25,711829.0,0.0
1771964112.7174249,270423.03125,710909.0,711430.25,711452.5625,711316.0625,711342.4375,711688.0,712040.625,0.0
1771964112.7211857,270323.1875,710906.75,711427.4375,711450.0,711313.75,711339.9375,711685.5,712038.125,0.0
1771964112.7212372,270287.40625,710692.6875,711213.6875,711236.125,711100.0625,711125.875,711471.625,711824.0625,0.0
1771964112.7233565,270383.875,710668.9375,711190.1875,711212.5,711076.0,711102.125,711447.75,711800.5625,0.0
1771964112.7253644,270429.21875,710877.75,711399.125,711420.8125,711284.375,711310.9375,711656.5,712009.5,0.0
1771964112.7279568,270341.0625,710934.25,711455.4375,711477.625,711341.0625,711367.625,711713.375,712066.1875,0.0
1771964112.7304437,270283.46875,710732.3125,711253.625,711275.875,711139.375,711165.6875,711511.3125,711863.75,0.0
1771964112.7330115,270374.3125,710654.6875,711176.3125,711198.375,711062.0625,711088.3125,711434.0625,711786.5,0.0
1771964112.7357657,270444.84375,710846.5625,711367.875,711390.1875,711253.75,711280.125,711626.0,711978.4375,0.0
1771964112.7384124,270372.4375,710953.9375,711474.6875,711497.0,711360.375,711386.875,711732.625,712085.125,0.0
1771964112.7404764,270293.84375,710775.5,711296.4375,711318.5625,711182.0,711208.75,711553.9375,711906.875,0.0
1771964112.7405243,270363.84375,710650.6875,711171.5,711193.8125,711057.1875,711084.0625,711429.0625,711782.1875,0.0
1771964112.7433455,270444.40625,710813.5625,711334.75,711357.375,711220.5625,711247.125,711592.3125,711945.5,0.0
1771964112.750735,270390.9375,710965.125,711486.125,711508.75,711372.1875,711398.75,711743.875,712097.0,0.0
1771964112.750811,270298.3125,710823.9375,711344.9375,711367.4375,711230.6875,711257.1875,711602.625,711955.5625,0.0
1771964112.787449,270345.0625,710653.375,711174.25,711196.875,711059.875,711086.625,711432.375,711785.0,0.0
1771964112.7875576,270441.1875,710777.3125,711297.625,711320.6875,711183.8125,711210.5625,711556.125,711909.0625,0.0
1771964112.7875788,270408.09375,710962.6875,711483.4375,711506.375,711369.6875,711396.4375,711741.5625,712094.5,0.0
1771964112.7890697,270309.59375,710865.5,711386.25,711409.125,711272.625,711299.25,711644.4375,711996.875,0.0
1771964112.7890863,270332.1875,710668.625,711189.4375,711212.0625,711075.5625,711102.0,711447.125,711799.9375,0.0
1771964112.792066,270440.5625,710741.9375,711262.875,711285.5,711148.875,711175.4375,711520.4375,711873.6875,0.0
1771964112.7944453,270440.84375,710948.3125,711469.0,711491.8125,711354.9375,711381.5625,711727.125,712079.75,0.0
1771964112.7969415,270329.4375,710901.8125,711422.375,711445.0625,711308.1875,711334.9375,711680.75,712033.0,0.0
1771964112.7994363,270320.75,710688.4375,711209.1875,711232.1875,711095.125,711121.75,711467.4375,711819.6875,0.0
1771964112.8022032,270430.5625,710711.5,711232.0,711254.4375,711117.8125,711144.5625,711490.125,711842.3125,0.0
1771964112.8071072,270457.90625,710925.4375,711446.3125,711468.9375,711332.0625,711358.875,711704.6875,712057.25,0.0
1771964112.8096867,270354.03125,710934.0,711455.1875,711477.875,711340.8125,711367.5625,711713.375,712066.0,0.0
1771964112.8146372,270320.5,710722.3125,711243.375,711265.875,711128.625,711155.5625,711501.1875,711853.8125,0.0
1771964112.8605547,270417.59375,710688.875,711209.625,711232.5625,711095.1875,711122.125,711467.6875,711820.5,0.0
1771964112.8605964,270459.875,710896.1875,711416.8125,711439.875,711302.625,711329.375,711675.3125,712028.0625,0.0
1771964112.8666503,270370.1875,710960.375,711481.1875,711504.0,711366.8125,711393.625,711739.3125,712092.25,0.0
1771964112.8696039,270311.09375,710760.75,711281.625,711304.3125,711167.25,711193.9375,711539.5625,711892.25,0.0
1771964112.8747263,270395.6875,710671.625,711192.875,711215.1875,711078.375,711104.75,711450.3125,711803.0625,0.0
1771964112.877077,270461.5625,710859.375,711380.4375,711402.9375,711266.1875,711292.625,711637.9375,711991.0,0.0
1771964112.8794358,270391.21875,710976.9375,711497.25,711520.0625,711383.1875,711410.375,711755.375,712108.4375,0.0
1771964112.8815513,270312.53125,710805.4375,711326.0625,711349.125,711212.0,711239.0625,711584.0625,711937.1875,0.0
1771964112.8841946,270372.15625,710668.3125,711189.375,711212.0,711075.0,711101.8125,711447.1875,711799.9375,0.0
1771964112.886632,270459.53125,710822.0625,711342.6875,711365.375,711228.625,711255.6875,711600.75,711953.6875,0.0
1771964112.889586,270412.40625,710980.75,711501.5,711524.375,711387.6875,711414.1875,711759.125,712112.6875,0.0
1771964112.8896475,270316.03125,710847.0,711367.625,711390.625,711253.8125,711280.125,711625.8125,711978.75,0.0
1771964112.8922496,270353.3125,710671.6875,711192.5625,711215.125,711078.125,711104.9375,711450.1875,711803.125,0.0
1771964112.8944428,270453.71875,710787.5625,711308.4375,711331.1875,711194.0,711220.75,711566.3125,711919.125,0.0
1771964112.8969903,270435.75,710979.625,711500.875,711523.625,711386.125,711413.125,711758.5,712111.5,0.0
1771964112.9095385,270337.46875,710892.6875,711413.875,711436.5,711299.0,711325.8125,711671.4375,712024.125,0.0
1771964112.9121575,270350.71875,710690.5625,711211.375,711234.0625,711097.0,711123.3125,711469.1875,711821.8125,0.0
1771964112.9146116,270447.28125,710753.25,711274.0,711296.625,711159.5625,711186.125,711531.8125,711884.6875,0.0
1771964112.914713,270444.21875,710963.4375,711483.875,711506.5,711369.5,711396.25,711741.8125,712094.5,0.0
1771964112.9171073,270342.9375,710930.8125,711451.25,711473.6875,711337.125,711363.8125,711708.875,712061.875,0.0
1771964112.9194772,270325.9375,710715.6875,711236.3125,711258.5625,711121.9375,711148.6875,711493.6875,711846.4375,0.0
1771964112.930842,270425.625,710725.3125,711246.25,711268.75,711131.75,711158.3125,711503.8125,711856.5,0.0
1771964112.9309173,270450.3125,710936.5,711457.25,711480.4375,711342.9375,711369.6875,711715.0,712068.5625,0.0
1771964112.9309433,270347.84375,710960.1875,711480.4375,711503.4375,711366.5625,711393.125,711738.3125,712091.625,0.0
1771964112.933098,270312.90625,710749.5625,711269.9375,711292.8125,711155.9375,711182.5,711527.75,711880.75,0.0
1771964112.9357457,270411.3125,710703.0625,711223.875,711246.5625,711109.6875,711136.1875,711481.4375,711834.5,0.0
1771964112.9357984,270469.25,710906.5625,711427.375,711450.1875,711312.75,711339.8125,711684.875,712038.0,0.0
1771964112.9384232,270387.46875,710982.125,711503.0,711525.8125,711388.125,711415.1875,711760.375,712113.375,0.0
1771964112.9408696,270330.5,710787.125,711307.9375,711330.8125,711193.375,711219.9375,711565.6875,711918.5625,0.0
1771964112.942936,270415.34375,710689.375,711209.8125,711232.875,711095.5625,711122.3125,711467.75,711820.75,0.0
1771964112.9454427,270485.28125,710872.125,711392.6875,711415.3125,711278.5,711305.3125,711650.625,712003.5625,0.0
1771964112.948243,270419.8125,710999.0,711519.875,711542.25,711405.375,711432.25,711777.9375,712130.625,0.0
1771964112.950686,270338.46875,710834.9375,711356.0,711378.8125,711241.375,711268.5,711613.5,711966.3125,0.0
1771964112.9532292,270405.875,710689.0625,711210.125,711233.0,711096.1875,711122.6875,711467.5625,711820.3125,0.0
1771964112.9556122,270507.8125,710837.125,711357.875,711380.4375,711243.8125,711270.625,711615.5625,711968.4375,0.0
1771964112.9583218,270472.5625,711003.125,711523.75,711546.375,711409.5,711436.1875,711781.125,712134.5,0.0
1771964112.9680717,270375.84375,710879.75,711400.5625,711423.25,711286.0,711312.75,711658.375,712011.25,0.0
1771964112.9681466,270418.03125,710698.8125,711219.6875,711242.3125,711105.125,711131.9375,711477.1875,711830.0625,0.0
1771964112.97077,270531.75,710802.125,711323.3125,711346.0,711208.6875,711235.75,711580.875,711933.5,0.0
1771964112.9735541,270515.65625,710996.4375,711517.1875,711540.125,711402.75,711430.0625,711775.3125,712128.0625,0.0
1771964112.9758794,270416.875,710919.875,711440.9375,711463.375,711326.25,711352.875,711698.6875,712051.4375,0.0
1771964112.98209,270431.53125,710714.9375,711235.9375,711258.3125,711121.3125,711147.6875,711493.625,711846.4375,0.0
1771964112.9821653,270542.9375,710766.625,711287.4375,711310.125,711173.1875,711199.8125,711545.5625,711898.1875,0.0
1771964112.984465,270558.125,710977.125,711497.875,711520.5,711383.4375,711410.4375,711755.9375,712108.625,0.0
1771964112.98708,270457.8125,710955.0,711475.8125,711498.375,711361.3125,711388.0,711733.75,712086.3125,0.0
1771964112.989761,270437.875,710741.875,711262.75,711285.5625,711148.4375,711175.0625,711520.5,711873.25,0.0
1771964112.9899466,270538.03125,710739.375,711260.0625,711283.125,711146.0625,711172.5625,711518.3125,711871.0,0.0
1771964113.0235765,270565.375,710949.75,711470.25,711493.3125,711355.9375,711382.75,711728.6875,712081.3125,0.0
1771964113.0236511,270468.90625,710983.75,711504.25,711526.75,711389.875,711416.5625,711762.1875,712114.875,0.0
1771964113.0254276,270426.25,710778.1875,711299.0,711321.3125,711184.25,711211.1875,711556.375,711909.4375,0.0
1771964113.0254428,270515.03125,710723.0,711243.5625,711266.1875,711129.1875,711155.9375,711501.3125,711854.125,0.0
1771964113.0332005,270572.875,710920.3125,711440.9375,711463.6875,711326.6875,711353.625,711698.8125,712051.625,0.0
1771964113.035823,270490.09375,711007.3125,711528.1875,711550.75,711414.125,711440.875,711785.875,712138.9375,0.0
1771964113.038432,270424.5625,710818.125,711339.1875,711361.4375,711224.875,711251.5625,711596.3125,711949.5,0.0
1771964113.0409184,270498.5,710710.75,711231.9375,711254.5625,711117.3125,711144.125,711489.3125,711842.1875,0.0
1771964113.0435448,270567.78125,710886.375,711406.6875,711429.5,711292.0625,711319.0625,711664.4375,712017.5625,0.0
1771964113.0469708,270509.125,711022.1875,711542.4375,711565.5,711428.0625,711455.0,711800.1875,712153.375,0.0
1771964113.0470228,270421.96875,710864.375,711385.0625,711407.6875,711270.8125,711297.625,711642.3125,711995.25,0.0
1771964113.0470402,270471.21875,710711.9375,711232.75,711255.25,711118.1875,711145.1875,711490.3125,711842.75,0.0
1771964113.0494428,270553.9375,710848.1875,711368.8125,711391.75,711254.8125,711281.375,711626.9375,711979.1875,0.0
1771964113.0546937,270512.96875,711021.4375,711542.0,711564.9375,711428.625,711454.8125,711800.125,712152.875,0.0
1771964113.057058,270411.3125,710907.8125,711428.25,711451.25,711314.625,711341.0,711686.375,712039.6875,0.0
1771964113.057166,270439.21875,710721.5,711241.75,711264.75,711128.0,711154.5625,711499.9375,711852.875,0.0
1771964113.059199,270540.0,710814.3125,711335.1875,711357.8125,711220.75,711247.625,711592.75,711945.5,0.0
1771964113.0621357,270524.59375,711012.5,711533.5,711556.125,711419.0625,711446.0625,711791.25,712143.875,0.0
1771964113.0645733,270417.59375,710946.5,711467.6875,711490.125,711353.3125,711380.0,711725.25,712077.8125,0.0
1771964113.0980587,270417.75,710738.1875,711258.75,711281.25,711144.8125,711171.5625,711516.875,711869.375,0.0
1771964113.098101,270519.5,710778.4375,711299.3125,711322.0625,711185.1875,711212.0625,711557.375,711909.625,0.0
1771964113.1040766,270534.71875,710991.3125,711512.0,711535.0,711397.9375,711424.6875,711770.25,712122.4375,0.0
1771964113.1040936,270432.96875,710981.25,711501.9375,711524.75,711387.9375,711414.5625,711759.6875,712112.375,0.0
1771964113.1080928,270407.03125,710767.375,711287.875,711310.4375,711174.25,711200.375,711545.75,711898.4375,0.0
1771964113.1081338,270507.34375,710754.9375,711275.375,711297.875,711161.1875,711187.6875,711533.0625,711885.8125,0.0
1771964113.1081529,270549.46875,710964.4375,711484.9375,711507.5625,711370.5625,711397.6875,711742.8125,712095.6875,0.0
1771964113.1117198,270458.28125,711008.125,711528.5625,711551.25,711414.1875,711440.875,711786.4375,712139.5,0.0
1771964113.1117578,270406.78125,710803.6875,711324.4375,711347.0,711209.9375,711236.5,711582.1875,711935.1875,0.0
1771964113.111776,270497.0625,710735.5,711256.25,711278.75,711142.0625,711168.375,711514.0625,711866.8125,0.0
1771964113.1142733,270557.875,710933.125,711453.625,711476.4375,711339.5,711365.75,711711.6875,712064.125,0.0
1771964113.1143055,270478.5625,711029.9375,711550.5,711573.1875,711436.5625,711462.6875,711808.5,712161.1875,0.0
1771964113.116664,270403.0,710845.5,711366.5,711388.4375,711252.0625,711278.4375,711624.25,711976.9375,0.0
1771964113.1190565,270470.5,710726.5625,711247.5,711269.4375,711132.9375,711159.75,711505.125,711858.0625,0.0
1771964113.122831,270553.03125,710892.8125,711413.75,711436.3125,711299.3125,711326.3125,711671.5,712024.625,0.0
1771964113.1342573,270500.46875,711034.3125,711555.5625,711578.5625,711441.125,711468.25,711813.75,712166.75,0.0
1771964113.1342976,270413.75,710886.875,711408.0625,711430.875,711293.625,711320.25,711665.5625,712018.9375,0.0
1771964113.140426,270463.375,710726.25,711247.125,711269.375,711132.5,711158.875,711504.8125,711857.6875,0.0
1771964113.1404605,270557.25,710855.125,711375.875,711397.9375,711261.25,711287.875,711633.8125,711986.3125,0.0
1771964113.1428409,270530.59375,711034.875,711555.375,711578.1875,711441.375,711467.6875,711813.75,712166.5,0.0
1771964113.1772728,270431.71875,710929.1875,711450.1875,711472.875,711336.375,711362.0625,711708.125,712061.25,0.0
1771964113.1773536,270448.96875,710736.0,711256.5625,711279.1875,711142.6875,711168.6875,711514.4375,711867.3125,0.0
1771964113.1795492,270545.4375,710819.75,711340.25,711363.0,711226.125,711252.8125,711598.1875,711951.0,0.0
1771964113.1796243,270534.1875,711023.875,711544.75,711567.4375,711430.25,711456.9375,711802.4375,712155.125,0.0
1771964113.1845028,270422.25,710967.0,711488.0,711510.625,711373.6875,711400.25,711745.8125,712098.5625,0.0
1771964113.1845984,270416.875,710755.8125,711277.4375,711299.5,711163.0,711189.25,711534.8125,711887.8125,0.0
1771964113.1871166,270519.40625,710786.0625,711307.4375,711329.625,711192.9375,711219.25,711564.75,711917.5,0.0
1771964113.1918745,270545.71875,710998.75,711519.375,711541.8125,711405.375,711431.625,711777.125,712130.0,0.0
1771964113.1942787,270454.25,711001.0625,711522.0625,711544.5,711407.875,711433.8125,711779.4375,712132.5,0.0
1771964113.1969965,270423.5625,710788.0,711308.8125,711331.4375,711194.4375,711220.8125,711566.625,711919.25,0.0
1771964113.1994371,270525.0625,710765.8125,711286.8125,711309.0625,711172.4375,711198.9375,711544.6875,711897.125,0.0
1771964113.2020755,270563.3125,710973.5,711494.3125,711516.6875,711380.125,711406.5,711752.5625,712104.6875,0.0
1771964113.2049646,270471.21875,711028.8125,711549.75,711572.1875,711435.4375,711462.125,711807.8125,712160.5,0.0
1771964113.2050395,270412.3125,710826.5625,711347.8125,711370.0625,711233.4375,711260.0,711606.0,711958.4375,0.0
1771964113.2069547,270504.9375,710748.375,711269.75,711291.375,711155.125,711181.375,711527.5,711880.1875,0.0
1771964113.2130666,270570.28125,710939.125,711460.4375,711482.375,711345.4375,711372.125,711717.8125,712070.625,0.0
1771964113.2131195,270493.3125,711048.25,711569.4375,711591.9375,711454.6875,711481.25,711826.9375,712180.0,0.0
1771964113.2418053,270415.53125,710870.625,711391.9375,711414.3125,711277.3125,711303.6875,711649.0,712002.4375,0.0
1771964113.2418487,270485.34375,710743.1875,711264.375,711286.75,711150.125,711176.5625,711522.125,711875.0,0.0
1771964113.241859,270563.9375,710901.625,711422.6875,711445.0625,711308.375,711334.75,711680.375,712033.6875,0.0
1771964113.2643368,270510.9375,711053.8125,711574.875,711597.3125,711460.625,711486.875,711832.4375,712185.875,0.0
1771964113.2731304,270422.9375,710914.1875,711435.5625,711457.9375,711320.875,711347.3125,711692.875,712046.3125,0.0
1771964113.2758884,270466.3125,710745.125,711266.0625,711288.6875,711151.4375,711178.0,711523.5,711876.8125,0.0
1771964113.277985,270556.34375,710866.0625,711387.125,711410.0,711272.875,711299.0625,711644.875,711997.9375,0.0
1771964113.2803183,270534.96875,711054.4375,711575.5,711598.3125,711461.25,711487.625,711833.25,712186.0625,0.0
1771964113.283314,270430.46875,710958.625,711479.5625,711502.0,711365.3125,711391.875,711737.25,712090.0625,0.0
1771964113.285843,270444.59375,710758.75,711280.0,711302.4375,711165.5625,711191.9375,711537.3125,711890.5,0.0
1771964113.2883687,270546.78125,710832.25,711353.125,711375.875,711238.8125,711265.5625,711610.625,711963.6875,0.0
1771964113.2928712,270549.90625,711039.6875,711560.25,711583.375,711446.25,711472.6875,711818.0625,712171.0625,0.0
1771964113.2955492,270447.71875,710995.25,711516.0625,711538.6875,711402.3125,711428.5,711774.25,712126.375,0.0
1771964113.2985015,270433.40625,710785.25,711305.9375,711328.0,711191.6875,711218.125,711564.0625,711916.0,0.0
1771964113.3008792,270536.5,710803.5,711324.25,711346.1875,711209.625,711236.375,711581.9375,711934.625,0.0
1771964113.3029332,270563.5,711017.875,711538.6875,711560.9375,711424.5,711451.0625,711796.625,712149.75,0.0
1771964113.3055668,270460.84375,711031.3125,711552.375,711574.375,711437.9375,711464.625,711810.1875,712162.9375,0.0
1771964113.308409,270418.75,710816.0,711337.25,711359.5625,711223.0,711249.8125,711595.375,711947.875,0.0
1771964113.30845,270518.25,710779.6875,711300.5625,711323.75,711186.875,711213.6875,711559.125,711911.5,0.0
1771964113.3392005,270564.125,710987.5,711508.0,711531.5,711394.1875,711421.25,711766.6875,712118.9375,0.0
1771964113.3419163,270475.875,711055.875,711576.375,711599.8125,711462.5625,711489.125,711834.9375,712187.75,0.0
1771964113.34205,270413.90625,710857.375,711377.9375,711401.0,711264.3125,711290.75,711636.5625,711989.1875,0.0
1771964113.3440979,270498.40625,710765.75,711286.375,711309.25,711172.9375,711199.625,711544.9375,711897.625,0.0
1771964113.3467815,270573.0625,710949.6875,711470.25,711493.4375,711356.4375,711383.4375,711728.5625,712081.4375,0.0
1771964113.351766,270502.15625,711069.75,711590.5,711613.5,711476.5625,711503.375,711848.625,712201.375,0.0
1771964113.3517847,270422.15625,710898.875,711419.5,711442.5625,711305.3125,711332.3125,711677.8125,712030.5625,0.0
1771964113.3545735,270483.9375,710761.0,711281.5625,711304.5,711167.375,711194.1875,711539.75,711892.4375,0.0
1771964113.356789,270566.1875,710913.4375,711434.125,711457.0625,711320.3125,711347.25,711692.1875,712045.3125,0.0
1771964113.3568375,270521.21875,711072.75,711593.5625,711616.4375,711479.8125,711506.5625,711851.4375,712204.75,0.0
1771964113.3592083,270431.1875,710942.0625,711461.8125,711485.375,711348.125,711375.0625,711720.4375,712073.625,0.0
1771964113.362079,270468.09375,710762.875,711283.5625,711306.5625,711169.625,711196.5,711542.1875,711894.6875,0.0
1771964113.3671553,270563.21875,710875.375,711396.3125,711419.0625,711282.4375,711309.3125,711654.8125,712007.1875,0.0
1771964113.3693547,270543.84375,711066.125,711587.25,711609.9375,711472.9375,711500.125,711845.1875,712197.9375,0.0
1771964113.371786,270443.0625,710981.6875,711502.75,711525.25,711388.375,711415.1875,711760.125,712113.375,0.0
1771964113.371836,270460.0625,710780.4375,711301.1875,711324.1875,711187.5,711213.9375,711559.25,711912.1875,0.0
1771964113.374604,270568.25,710841.9375,711362.5625,711385.4375,711249.0625,711275.5625,711620.5,711973.625,0.0
1771964113.374679,270571.28125,711050.3125,711571.75,711594.4375,711458.125,711484.5,711829.875,712182.875,0.0
1771964113.3771825,270466.9375,711018.5,711539.8125,711562.375,711425.6875,711452.1875,711797.875,712150.375,0.0
1771964113.3772588,270456.65625,710806.4375,711327.3125,711350.1875,711213.3125,711239.875,711585.3125,711938.125,0.0
1771964113.379149,270564.125,710816.625,711337.625,711360.375,711223.4375,711250.25,711595.625,711948.625,0.0
1771964113.38225,270590.40625,711028.3125,711549.125,711572.375,711434.75,711461.8125,711807.625,712160.4375,0.0
1771964113.384586,270494.375,711052.3125,711572.8125,711596.0625,711458.5,711485.625,711831.0625,712184.125,0.0
1771964113.3878808,270460.84375,710844.4375,711365.3125,711387.9375,711250.9375,711277.9375,711623.1875,711976.125,0.0
1771964113.387898,270554.5625,710796.125,711317.3125,711339.5,711203.3125,711229.6875,711575.0625,711927.6875,0.0
1771964113.4219663,270604.1875,710997.5,711518.625,711541.25,711404.5625,711430.875,711776.5,712129.125,0.0
1771964113.4220417,270517.71875,711076.5,711597.5625,711620.5,711483.3125,711509.8125,711855.5,712208.25,0.0
1771964113.4246564,270454.0625,710883.25,711404.125,711426.75,711289.5625,711316.3125,711661.8125,712014.9375,0.0
1771964113.4247332,270536.125,710784.4375,711305.3125,711328.1875,711191.4375,711218.0,711563.4375,711916.625,0.0
1771964113.4273198,270610.71875,710960.5,711481.1875,711503.8125,711367.25,711394.0,711739.6875,712092.375,0.0
1771964113.4295626,270541.3125,711086.1875,711606.6875,711629.4375,711493.0,711519.1875,711865.1875,712217.8125,0.0
1771964113.4320884,270455.5,710922.6875,711443.75,711466.0,711329.5625,711355.625,711701.375,712054.3125,0.0
1771964113.43417,270513.25,710775.5,711296.75,711319.0625,711182.3125,711208.9375,711554.3125,711907.0,0.0
1771964113.4371037,270604.0,710922.1875,711443.4375,711466.0625,711329.375,711355.8125,711701.3125,712054.0,0.0
1771964113.439738,270565.46875,711092.25,711613.25,711636.125,711499.0625,711526.0,711871.4375,712224.0625,0.0
1771964113.4442112,270461.65625,710968.6875,711489.875,711512.3125,711375.25,711402.5,711748.0,712100.625,0.0
1771964113.4546885,270496.4375,710783.5625,711304.625,711327.25,711190.4375,711217.1875,711562.75,711915.1875,0.0
1771964113.457204,270595.25,710884.8125,711405.5625,711428.4375,711291.75,711317.8125,711663.75,712016.5625,0.0
1771964113.4572785,270581.1875,711082.25,711603.375,711626.1875,711489.4375,711515.625,711861.4375,712214.125,0.0
1771964113.459793,270475.4375,711008.3125,711529.375,711552.4375,711415.3125,711441.75,711787.3125,712140.3125,0.0
1771964113.4598725,270488.65625,710803.1875,711324.0,711347.0625,711210.4375,711236.9375,711582.5,711935.375,0.0
1771964113.4633777,270587.0,710852.375,711373.4375,711396.0,711259.75,711286.1875,711632.0,711984.1875,0.0
1771964113.4634244,270592.8125,711064.8125,711585.875,711608.3125,711472.0,711498.4375,711844.0,712196.875,0.0
1771964113.4634352,270489.125,711045.0625,711565.6875,711588.625,711451.5625,711478.25,711823.3125,712176.75,0.0
1771964113.4674876,270463.53125,710829.5625,711350.125,711372.75,711235.9375,711262.75,711607.625,711961.0,0.0
1771964113.4733396,270563.3125,710824.3125,711344.5625,711367.1875,711230.9375,711257.5,711602.3125,711955.6875,0.0
1771964113.4821007,270599.53125,711034.625,711555.5625,711578.0,711441.75,711468.0625,711813.3125,712166.5,0.0
1771964113.4821746,270504.65625,711069.9375,711590.625,711612.875,711476.5625,711502.9375,711848.4375,712201.5625,0.0
1771964113.5134418,270460.78125,710865.25,711385.875,711408.5,711272.0,711298.1875,711644.1875,711996.8125,0.0
1771964113.513516,270548.65625,710806.875,711327.5625,711349.9375,711213.5625,711240.0625,711585.625,711938.5,0.0
1771964113.5157554,270605.6875,711004.4375,711525.1875,711547.6875,711411.1875,711437.5625,711782.9375,712136.0625,0.0
1771964113.5158043,270522.5625,711095.125,711615.75,711638.25,711502.1875,711527.9375,711873.6875,712226.8125,0.0
1771964113.5180688,270449.9375,710906.0,711426.4375,711449.0,711312.8125,711338.875,711684.9375,712037.8125,0.0
1771964113.520703,270529.53125,710794.6875,711315.625,711338.125,711201.625,711228.1875,711573.5625,711926.4375,0.0
1771964113.523364,270609.53125,710968.25,711489.125,711511.5,711375.25,711401.875,711747.375,712099.875,0.0
1771964113.525489,270550.09375,711106.375,711627.25,711649.6875,711513.25,711539.5625,711885.125,712238.1875,0.0
1771964113.5284882,270463.8125,710950.75,711470.8125,711493.6875,711357.375,711384.0625,711729.125,712082.1875,0.0
1771964113.5303452,270512.53125,710798.5625,711318.625,711341.6875,711205.125,711232.125,711577.0,711930.0,0.0
1771964113.5328307,270605.96875,710935.375,711455.875,711479.0625,711342.3125,711369.0625,711714.25,712067.0625,0.0
1771964113.5359464,270569.9375,711109.6875,711630.3125,711653.3125,711516.3125,711543.4375,711888.6875,712241.5,0.0
1771964113.5383828,270473.5625,710996.125,711516.5625,711539.5,711402.9375,711429.5,711775.3125,712128.0625,0.0
1771964113.5384583,270504.21875,710806.875,711327.5625,711350.5,711213.5625,711240.5625,711585.6875,711938.5625,0.0
1771964113.540315,270602.65625,710898.4375,711419.3125,711442.0,711305.3125,711332.0625,711676.875,712029.9375,0.0
1771964113.5448482,270591.9375,711099.6875,711620.5,711643.375,711506.5,711533.0625,711878.3125,712231.1875,0.0
1771964113.5958452,270484.1875,711035.3125,711556.0,711579.0625,711441.875,711468.6875,711814.3125,712167.125,0.0
1771964113.5959215,270483.75,710824.9375,711345.8125,711368.375,711231.5,711258.125,711603.875,711956.375,0.0
1771964113.5984683,270589.25,710864.25,711385.4375,711408.0625,711271.1875,711297.875,711643.75,711996.4375,0.0
1771964113.598542,270605.59375,711077.0,711598.125,711620.8125,711484.0625,711510.25,711856.3125,712209.125,0.0
1771964113.6032753,270504.84375,711067.4375,711587.875,711610.5625,711474.0,711500.25,711846.0625,712199.125,0.0
1771964113.6055589,270473.65625,710853.625,711374.0,711396.8125,711260.0,711286.75,711632.4375,711985.25,0.0
1771964113.6080072,270572.34375,710838.1875,711358.6875,711381.25,711244.6875,711271.5,711617.25,711969.625,0.0
1771964113.61066,270615.8125,711048.25,711568.875,711591.3125,711454.625,711481.375,711827.1875,712179.625,0.0
1771964113.6131525,270525.9375,711095.3125,711615.8125,711638.375,711501.5625,711528.5625,711874.3125,712226.9375,0.0
1771964113.6185973,270477.3125,710892.1875,711412.6875,711435.4375,711298.5,711325.6875,711671.25,712023.625,0.0
1771964113.621318,270570.84375,710822.3125,711342.875,711365.6875,711228.8125,711255.875,711601.25,711953.625,0.0
1771964113.6228304,270637.96875,711015.125,711535.75,711558.6875,711421.4375,711448.375,711793.9375,712146.625,0.0
1771964113.6256123,270555.53125,711113.5625,711634.4375,711656.9375,711519.875,711546.875,711892.375,712245.25,0.0
1771964113.6283996,270482.6875,710931.5,711452.1875,711474.6875,711338.125,711365.0625,711710.25,712063.125,0.0
1771964113.6284716,270547.21875,710810.25,711330.6875,711353.5,711216.5625,711243.625,711588.9375,711941.6875,0.0
1771964113.639343,270628.125,710977.75,711498.5,711521.125,711383.9375,711411.25,711756.3125,712109.375,0.0
1771964113.6416156,270571.0,711124.6875,711645.25,711668.0625,711530.8125,711558.0625,711902.9375,712256.0625,0.0
1771964113.6416316,270477.5,710976.6875,711497.4375,711520.3125,711383.125,711410.0,711755.1875,712108.3125,0.0
1771964113.6446311,270519.5,710812.5,711332.9375,711356.1875,711219.0625,711245.9375,711591.125,711944.25,0.0
1771964113.646876,270613.03125,710939.8125,711460.25,711483.25,711346.25,711373.1875,711718.125,712071.4375,0.0
1771964113.6495557,270584.5,711122.8125,711643.125,711666.4375,711529.375,711555.5625,711901.3125,712254.375,0.0
1771964113.6496272,270479.0,711019.1875,711539.75,711562.75,711425.8125,711451.9375,711797.9375,712150.375,0.0
1771964113.6543474,270502.15625,710825.0,711345.75,711368.4375,711231.5625,711258.1875,711603.5,711956.5625,0.0
1771964113.6543944,270603.5625,710907.875,711429.0625,711451.5,711314.6875,711341.4375,711687.0,712040.0,0.0
1771964113.6596107,270596.3125,711112.625,711633.875,711656.625,711519.8125,711546.1875,711891.8125,712244.75,0.0
1771964113.6672912,270496.625,711058.3125,711578.8125,711601.5,711465.0,711491.4375,711837.0,712189.9375,0.0
1771964113.6701217,270490.625,710846.1875,711367.125,711389.25,711253.1875,711279.6875,711625.125,711978.125,0.0
1771964113.6719515,270596.9375,710877.625,711398.1875,711420.625,711284.5625,711310.9375,711656.6875,712009.125,0.0
1771964113.674723,270617.40625,711091.25,711612.0,711634.25,711498.0,711524.5625,711870.125,712222.75,0.0
1771964113.67734,270513.6875,711091.0,711611.6875,711633.8125,711496.8125,711523.75,711869.5,712222.375,0.0
1771964113.6775415,270480.15625,710877.0625,711398.0625,711419.9375,711283.125,711309.8125,711655.5,712008.6875,0.0
1771964113.6794393,270583.96875,710850.6875,711371.375,711394.4375,711257.3125,711283.875,711629.3125,711982.5,0.0
1771964113.682106,270627.59375,711061.875,711582.3125,711605.125,711468.25,711495.125,711840.3125,712193.5,0.0
1771964113.6842935,270536.59375,711119.25,711639.6875,711662.5,711525.6875,711552.6875,711898.0625,712251.25,0.0
1771964113.686898,270482.21875,710917.1875,711438.0625,711460.4375,711324.0,711351.25,711696.125,712048.8125,0.0
1771964113.686947,270573.78125,710837.0,711357.8125,711380.625,711243.375,711270.5625,711616.0,711968.625,0.0
1771964113.7232308,270642.8125,711027.6875,711548.6875,711571.1875,711434.3125,711461.3125,711806.8125,712159.4375,0.0
1771964113.7267568,270568.25,711137.875,711659.125,711681.125,711544.6875,711571.5,711916.625,712269.9375,0.0
1771964113.7268057,270485.90625,710961.9375,711483.4375,711505.0625,711368.4375,711395.5,711740.9375,712093.875,0.0
1771964113.7268155,270548.03125,710831.9375,711352.875,711375.0625,711238.25,711265.4375,711610.75,711963.5625,0.0
1771964113.7297113,270640.65625,710991.9375,711512.9375,711535.1875,711398.375,711424.9375,711770.75,712123.3125,0.0
1771964113.731977,270591.9375,711144.8125,711665.75,711687.875,711551.125,711577.625,711923.5,712276.0,0.0
1771964113.734888,270499.75,711006.1875,711527.5,711549.5625,711412.9375,711439.5,711785.1875,712138.125,0.0
1771964113.7368789,270536.21875,710833.9375,711355.125,711377.9375,711240.9375,711267.75,711613.125,711966.375,0.0
1771964113.7397578,270628.78125,710953.875,711474.9375,711497.375,711360.375,711387.3125,711732.875,712085.8125,0.0
1771964113.7443235,270605.59375,711140.25,711661.5,711683.9375,711547.1875,711574.0,711919.625,712272.4375,0.0
1771964113.7470353,270506.46875,711046.0625,711567.3125,711589.8125,711453.1875,711479.6875,711824.9375,712178.125,0.0
1771964113.7491865,270528.28125,710845.125,711366.5,711388.5625,711252.3125,711278.9375,711624.0625,711977.125,0.0
1771964113.751865,270636.71875,710917.0,711438.4375,711460.625,711324.375,711350.8125,711695.9375,712048.9375,0.0
1771964113.7541494,270636.53125,711124.4375,711645.6875,711667.4375,711531.1875,711557.6875,711903.1875,712256.0,0.0
1771964113.757203,270534.96875,711080.625,711601.25,711623.625,711486.8125,711513.5625,711859.4375,712211.9375,0.0
1771964113.7572777,270525.21875,710868.3125,711389.25,711411.6875,711274.8125,711301.375,711647.5,711999.8125,0.0
1771964113.7622,270623.9375,710885.4375,711406.6875,711429.125,711292.375,711318.625,711664.625,712017.0625,0.0
1771964113.7670512,270645.5625,711097.6875,711618.6875,711641.375,711504.4375,711530.6875,711876.625,712229.25,0.0
1771964113.7694995,270536.9375,711111.8125,711632.75,711655.25,711518.4375,711544.9375,711890.875,712243.5625,0.0
1771964113.7695749,270497.59375,710899.75,711420.8125,711443.1875,711306.6875,711333.375,711678.625,712031.6875,0.0
1771964113.7722464,270593.09375,710860.5,711381.5,711403.875,711267.25,711294.5625,711639.25,711992.125,0.0
1771964113.7754333,270638.78125,711066.8125,711587.5625,711609.9375,711473.0625,711499.9375,711845.3125,712197.875,0.0
1771964113.7854593,270552.9375,711136.9375,711657.3125,711679.5625,711543.125,711569.8125,711915.4375,712267.875,0.0
1771964113.785502,270493.9375,710940.0,711460.8125,711482.8125,711346.8125,711373.0625,711719.0,712071.25,0.0
1771964113.7904522,270568.59375,710846.6875,711367.75,711389.75,711253.375,711280.1875,711625.8125,711977.8125,0.0
1771964113.790469,270639.40625,711030.5625,711552.0,711573.875,711437.5625,711464.1875,711809.9375,712162.1875,0.0
1771964113.7929995,270576.1875,711150.625,711671.875,711693.8125,711557.5625,711584.0625,711929.8125,712282.4375,0.0
1771964113.8266363,270499.46875,710983.75,711504.8125,711526.9375,711390.6875,711417.4375,711762.8125,712115.375,0.0
1771964113.8368511,270558.3125,710843.5625,711364.3125,711386.5625,711250.5,711277.3125,711622.6875,711975.0,0.0
1771964113.836902,270647.28125,710992.9375,711513.75,711536.0,711399.75,711426.375,711772.1875,712124.625,0.0
1771964113.8369124,270599.71875,711154.125,711674.9375,711697.4375,711560.6875,711587.5,711933.3125,712285.875,0.0
1771964113.8391862,270495.09375,711021.8125,711543.0625,711565.5,711428.4375,711455.1875,711801.0625,712153.4375,0.0
1771964113.8422985,270534.875,710844.875,711365.6875,711387.8125,711251.4375,711278.25,711623.625,711976.125,0.0
1771964113.8442035,270642.34375,710957.1875,711477.875,711500.25,711363.625,711390.875,711735.875,712088.875,0.0
1771964113.868419,270626.96875,711147.4375,711668.375,711691.0,711554.125,711581.25,711926.4375,712279.125,0.0
1771964113.8707309,270523.8125,711064.125,711584.4375,711607.5,711470.4375,711497.375,711842.5625,712195.25,0.0
1771964113.878533,270534.625,710861.0625,711381.3125,711404.1875,711267.25,711294.3125,711639.625,711992.125,0.0
1771964113.878605,270645.75,710923.4375,711443.875,711466.25,711329.4375,711356.75,711702.1875,712055.0,0.0
1771964113.8808427,270652.71875,711133.5625,711654.1875,711676.375,711539.8125,711566.8125,711912.5625,712265.375,0.0
1771964113.8809204,270542.65625,711102.5625,711623.3125,711645.5,711508.875,711535.75,711881.625,712234.0,0.0
1771964113.8834033,270525.21875,710890.5,711411.25,711433.375,711296.8125,711323.5,711668.875,712021.5,0.0
1771964113.883479,270628.9375,710897.1875,711417.625,711440.0625,711303.25,711330.4375,711675.625,712028.1875,0.0
1771964113.887226,270660.40625,711107.75,711628.6875,711651.25,711514.0625,711541.0625,711886.375,712239.375,0.0
1771964113.887277,270565.1875,711132.6875,711653.75,711676.25,711539.3125,711565.9375,711911.5,712264.375,0.0
1771964113.8872871,270525.15625,710924.375,711445.3125,711467.6875,711330.8125,711357.625,711703.1875,712055.625,0.0
1771964113.8893385,270620.71875,710875.4375,711396.25,711418.625,711281.8125,711309.0,711654.0,712007.0625,0.0
1771964113.8894093,270665.875,711074.8125,711595.4375,711617.6875,711481.0,711508.0,711853.1875,712206.4375,0.0
1771964113.8919964,270581.03125,711154.75,711675.75,711698.0,711561.3125,711587.875,711933.375,712286.5,0.0
1771964113.8920443,270523.4375,710963.875,711485.125,711507.375,711370.3125,711397.3125,711742.9375,712095.5625,0.0
1771964113.8947866,270603.90625,710863.375,711384.0,711406.5,711269.5625,711296.1875,711642.125,711994.625,0.0
1771964113.897186,270676.875,711041.5625,711562.4375,711585.0625,711448.375,711474.6875,711820.5,712173.1875,0.0
1771964113.8993168,270616.4375,711172.375,711693.0625,711715.625,711579.0625,711605.1875,711951.0,712304.0,0.0
1771964113.9015827,270533.90625,711009.125,711529.625,711552.1875,711415.75,711441.9375,711787.5625,712140.375,0.0
1771964113.9016,270587.1875,710860.25,711380.75,711402.75,711266.1875,711292.6875,711638.5625,711991.4375,0.0
1771964113.915796,270672.5625,711004.1875,711524.75,711546.625,711410.125,711436.6875,711782.3125,712135.375,0.0
1771964113.923427,270632.78125,711174.5,711695.3125,711717.5625,711580.8125,711607.3125,711952.8125,712306.0625,0.0
1771964113.9235008,270533.09375,711050.0625,711571.1875,711593.75,711456.6875,711483.125,711829.0,712181.9375,0.0
1771964113.9235215,270569.75,710867.3125,711388.0,711410.5625,711273.75,711300.5,711645.875,711998.875,0.0
1771964113.9295385,270671.15625,710967.8125,711488.625,711511.125,711374.3125,711401.0625,711746.375,712099.1875,0.0
1771964113.929587,270659.625,711166.1875,711687.0,711709.5,711572.5625,711599.375,711944.75,712297.75,0.0
1771964113.932094,270552.5,711093.0,711613.75,711636.125,711499.0625,711526.25,711871.5625,712224.0,0.0
1771964113.935413,270558.84375,710885.3125,711406.6875,711428.875,711292.0,711318.75,711664.4375,712017.1875,0.0
1771964113.979611,270666.0625,710936.5,711457.3125,711479.8125,711343.125,711369.6875,711715.625,712068.25,0.0
1771964113.979686,270671.875,711147.875,711668.6875,711691.4375,711554.25,711581.0625,711926.875,712279.75,0.0
1771964113.9823523,270570.125,711130.25,711651.5625,711673.875,711536.625,711563.4375,711909.25,712262.125,0.0
1771964113.9824283,270551.59375,710915.625,711436.8125,711458.5,711322.0625,711348.4375,711694.25,712047.125,0.0
1771964113.9841464,270652.28125,710910.6875,711431.8125,711453.625,711316.6875,711343.4375,711689.25,712041.9375,0.0
1771964113.9872067,270684.75,711121.125,711642.125,711664.3125,711526.875,711553.875,711899.6875,712252.5,0.0
1771964113.9896815,270582.0,711156.375,711677.1875,711699.8125,711562.4375,711589.4375,711934.75,712288.0625,0.0
1771964113.9922616,270537.75,710948.5625,711469.375,711492.0625,711354.875,711381.6875,711727.0625,712080.1875,0.0
1771964113.9944754,270632.6875,710889.125,711410.1875,711432.5625,711295.6875,711322.5,711667.75,712020.9375,0.0
1771964113.9968245,270692.6875,711087.6875,711608.25,711631.0,711493.875,711520.5,711865.8125,712219.125,0.0
1771964113.9995365,270610.15625,711176.75,711697.5625,711719.75,711582.8125,711609.6875,711955.25,712308.0,0.0
1771964114.0018313,270546.5,710987.0,711508.25,711530.625,711393.5625,711420.1875,711765.875,712118.8125,0.0
1771964114.004204,270621.78125,710876.5,711398.125,711420.8125,711283.125,711310.125,711655.5,712008.9375,0.0
1771964114.0071886,270693.5,711049.875,711570.9375,711594.0,711456.4375,711483.4375,711829.125,712182.125,0.0
1771964114.0094016,270627.59375,711187.3125,711707.9375,711731.0625,711593.9375,711620.5,711966.375,712319.4375,0.0
1771964114.0117261,270544.625,711031.75,711552.875,711575.625,711438.4375,711465.25,711810.9375,712163.8125,0.0
1771964114.0117745,270592.5625,710876.0625,711396.875,711419.875,711282.875,711309.5,711654.875,712007.5,0.0
1771964114.0430508,270680.4375,711011.375,711532.3125,711554.9375,711418.3125,711445.0625,711790.0625,712142.8125,0.0
1771964114.0455332,270640.5625,711185.0,711705.9375,711728.6875,711591.625,711618.6875,711964.1875,712316.625,0.0
1771964114.045574,270543.65625,711072.75,711593.75,711616.25,711478.9375,711506.5,711851.875,712204.6875,0.0
1771964114.0478432,270576.28125,710885.75,711406.5,711429.125,711292.25,711319.25,711664.75,712017.875,0.0
1771964114.052966,270676.59375,710975.875,711496.625,711519.1875,711382.5,711409.3125,711754.75,712107.75,0.0
1771964114.0604725,270672.21875,711176.5625,711698.1875,711720.5,711583.3125,711610.1875,711955.75,712308.625,0.0
1771964114.0657504,270561.09375,711113.5625,711634.8125,711657.25,711519.875,711546.875,711892.625,712245.625,0.0
1771964114.0680995,270562.78125,710906.0,711426.8125,711449.625,711312.5,711339.375,711685.125,712037.75,0.0
1771964114.0681922,270662.65625,710946.5,711467.4375,711490.5,711353.125,711380.0625,711725.625,712078.4375,0.0
1771964114.0707605,270674.4375,711159.0625,711679.9375,711702.75,711565.375,711592.6875,711937.875,712290.9375,0.0
1771964114.0731845,270569.21875,711148.5,711668.75,711691.75,711554.4375,711581.3125,711926.6875,712279.5625,0.0
1771964114.0780735,270540.34375,710932.6875,711453.5625,711475.9375,711338.9375,711365.9375,711711.25,712064.125,0.0
1771964114.0834436,270637.71875,710919.1875,711440.25,711462.4375,711325.875,711352.25,711698.1875,712050.4375,0.0
1771964114.0924256,270675.875,711126.4375,711647.5625,711670.25,711532.875,711559.9375,711905.4375,712258.25,0.0
1771964114.0941713,270584.0625,711173.5625,711694.25,711717.1875,711579.875,711607.4375,711952.8125,712305.4375,0.0
1771964114.0973067,270538.1875,710970.6875,711491.625,711514.25,711376.9375,711404.0,711749.375,712102.1875,0.0
1771964114.0996225,270630.5625,710899.125,711420.625,711443.0,711305.5625,711332.6875,711677.9375,712031.0625,0.0
1771964114.1019156,270689.84375,711090.75,711612.1875,711634.4375,711497.0,711524.1875,711869.375,712222.1875,0.0
1771964114.1019702,270612.125,711189.625,711710.75,711733.6875,711596.0625,711623.25,711968.625,712321.1875,0.0
1771964114.1048396,270534.53125,711009.75,711530.8125,711553.625,711416.375,711442.9375,711788.625,712141.1875,0.0
1771964114.10683,270605.15625,710889.125,711410.3125,711433.1875,711295.6875,711322.6875,711668.3125,712021.0,0.0
1771964114.1096172,270687.15625,711054.875,711575.875,711598.6875,711461.125,711488.5,711834.0625,712186.9375,0.0
1771964114.112026,270628.0625,711200.5625,711721.5,711744.3125,711607.1875,711634.0625,711979.625,712332.5,0.0
1771964114.1121004,270535.25,711050.9375,711571.75,711594.5625,711457.5,711484.5,711829.875,712182.875,0.0
1771964114.1148667,270582.4375,710886.625,711407.875,711430.25,711293.0,711320.25,711665.8125,712018.5,0.0
1771964114.117152,270679.09375,711012.875,711534.375,711556.4375,711419.3125,711446.3125,711792.125,712144.6875,0.0
1771964114.1196835,270649.96875,711196.6875,711717.375,711740.0,711603.125,711629.75,711975.4375,712328.375,0.0
1771964114.1197596,270558.75,711095.6875,711615.8125,711638.8125,711501.8125,711528.75,711874.0625,712227.5625,0.0
1771964114.1242635,270577.8125,710900.0625,711420.375,711443.375,711306.5625,711333.1875,711678.3125,712031.75,0.0
1771964114.124342,270674.53125,710980.25,711501.3125,711523.375,711386.875,711413.6875,711758.8125,712111.9375,0.0
1771964114.1292841,270664.96875,711186.4375,711707.1875,711729.75,711592.9375,711619.75,711965.25,712318.6875,0.0
1771964114.1293325,270561.53125,711135.25,711656.3125,711678.5,711542.0,711568.8125,711913.75,712267.25,0.0
1771964114.134235,270552.40625,710922.125,711443.75,711465.8125,711329.0,711356.0,711701.125,712054.125,0.0
1771964114.1385927,270658.1875,710951.625,711473.125,711495.5625,711358.6875,711385.6875,711730.8125,712083.6875,0.0
1771964114.1719227,270681.96875,711165.75,711687.0,711709.625,711572.5625,711599.5625,711944.5,712297.9375,0.0
1771964114.171988,270582.09375,711167.125,711688.1875,711710.875,711573.875,711601.0,711946.0,712299.5,0.0
1771964114.1992488,270556.78125,710953.875,711475.125,711497.625,711360.375,711388.0,711732.875,712086.0,0.0
1771964114.2083492,270658.0,710925.8125,711447.1875,711469.5,711332.5625,711359.5625,711704.6875,712058.125,0.0
1771964114.2108529,270702.96875,711134.0,711655.1875,711677.5,711540.75,711567.5625,711912.9375,712266.1875,0.0
1771964114.212956,270612.75,711191.5,711712.5625,711735.25,711598.0625,711625.1875,711970.3125,712323.125,0.0
1771964114.2159057,270560.625,710993.3125,711514.5625,711536.875,711399.75,711427.25,711772.375,712125.0,0.0
1771964114.2259517,270643.6875,710913.1875,711434.5,711456.625,711320.0625,711346.875,711692.1875,712045.0625,0.0
1771964114.2282047,270707.71875,711102.75,711623.9375,711646.4375,711509.5,711536.0625,711881.625,712234.625,0.0
1771964114.2308612,270627.25,711212.1875,711734.0,711755.9375,711619.3125,711646.3125,711991.3125,712344.5625,0.0
1771964114.2329752,270547.84375,711037.25,711558.0,711580.1875,711443.1875,711470.625,711815.75,712169.0,0.0
1771964114.2405465,270614.71875,710906.75,711427.0625,711449.25,711312.375,711339.8125,711685.125,712038.375,0.0
1771964114.2432528,270696.4375,711065.6875,711586.5,711608.9375,711471.8125,711499.3125,711844.1875,712197.5,0.0
1771964114.250432,270643.78125,711217.25,711738.5625,711761.0,711624.25,711651.3125,711996.25,712349.3125,0.0
1771964114.2531047,270551.59375,711079.5625,711601.0,711623.0625,711486.5625,711513.25,711858.5625,712211.625,0.0
1771964114.255376,270596.3125,710911.375,711431.75,711453.625,711317.375,711344.1875,711689.6875,712042.5,0.0
1771964114.260377,270695.09375,711030.3125,711550.9375,711572.9375,711436.3125,711463.5,711808.9375,712161.125,0.0
1771964114.2629018,270672.125,711217.4375,711738.0625,711760.75,711623.4375,711650.8125,711995.8125,712348.6875,0.0
1771964114.2667303,270564.65625,711121.9375,711642.5,711665.5625,711528.375,711555.375,711900.75,712253.9375,0.0
1771964114.2667484,270576.46875,710923.5625,711444.0625,711466.625,711329.8125,711357.0625,711702.1875,712055.0,0.0
1771964114.2667556,270677.03125,710995.0,711515.8125,711538.25,711401.3125,711428.1875,711773.625,712126.375,0.0
1771964114.2691977,270677.03125,711203.75,711724.5625,711747.25,711610.0,711636.9375,711982.5,712335.3125,0.0
1771964114.271696,270571.09375,711163.9375,711684.3125,711707.3125,711569.875,711596.9375,711942.625,712295.5,0.0
1771964114.274118,270560.5625,710948.25,711469.0,711492.0625,711354.9375,711381.6875,711727.0625,712079.9375,0.0
1771964114.2767324,270669.09375,710965.3125,711485.8125,711508.75,711371.5,711398.5,711743.75,712096.375,0.0
1771964114.2767467,270694.75,711176.5625,711696.9375,711719.75,711582.6875,711609.5,711955.0625,712307.9375,0.0
1771964114.281611,270596.75,711189.0625,711709.625,711732.125,711595.0,711621.9375,711967.375,712320.5625,0.0
1771964114.284238,270562.4375,710977.1875,711498.375,711520.6875,711383.75,711410.375,711755.6875,712109.0625,0.0
1771964114.2842755,270656.5625,710939.8125,711460.625,711483.125,711346.375,711373.25,711718.375,712071.6875,0.0
1771964114.2866092,270706.5625,711142.9375,711663.5625,711685.9375,711549.0625,711576.375,711921.25,712275.0,0.0
1771964114.2891276,270622.25,711215.125,711735.75,711757.875,711620.8125,711648.3125,711993.0625,712346.625,0.0
1771964114.2917128,270559.375,711016.5625,711537.6875,711559.6875,711423.25,711449.625,711795.25,712148.0625,0.0
1771964114.2942245,270637.09375,710924.25,711445.0625,711467.0625,711330.6875,711357.0625,711702.4375,712055.5625,0.0
1771964114.296615,270704.75,711108.5625,711629.3125,711651.5,711515.0,711541.4375,711887.0,712240.0,0.0
1771964114.296631,270636.625,711227.25,711748.0625,711770.4375,711633.8125,711660.625,712005.8125,712358.6875,0.0
1771964114.2991796,270552.3125,711056.5,711577.0,711599.4375,711462.875,711489.6875,711834.9375,712187.875,0.0
1771964114.3073542,270619.90625,710918.125,711438.875,711461.125,711324.875,711351.125,711696.5,712049.4375,0.0
1771964114.3074288,270704.75,711069.3125,711589.8125,711612.3125,711475.625,711502.1875,711847.3125,712200.625,0.0
1771964114.307451,270657.1875,711233.375,711754.25,711776.6875,711639.875,711666.1875,712011.4375,712365.0,0.0
1771964114.3092198,270566.8125,711104.125,711625.3125,711647.8125,711510.9375,711537.4375,711882.8125,712235.875,0.0
1771964114.3092608,270603.5625,710925.0625,711446.0625,711468.5625,711331.875,711358.3125,711703.5625,712056.3125,0.0
1771964114.3158896,270702.96875,711034.9375,711556.0,711578.4375,711441.5625,711468.3125,711813.4375,712166.25,0.0
1771964114.3546135,270680.4375,711229.4375,711750.1875,711772.5625,711636.0625,711662.5625,712007.8125,712360.75,0.0
1771964114.3571086,270568.25,711144.9375,711665.625,711688.4375,711551.5625,711578.1875,711923.5625,712276.625,0.0
1771964114.3591523,270578.4375,710939.1875,711460.0625,711483.125,711346.1875,711372.8125,711718.125,712070.9375,0.0
1771964114.3591738,270689.46875,711000.8125,711521.875,711544.8125,711407.875,711434.6875,711780.25,712132.6875,0.0
1771964114.363468,270704.75,711211.8125,711732.6875,711755.6875,711618.3125,711645.25,711990.6875,712343.8125,0.0
1771964114.3635435,270601.9375,711182.125,711703.25,711725.875,711588.625,711615.5,711960.9375,712314.125,0.0
1771964114.3635662,270578.96875,710967.875,711488.9375,711511.5,711374.5,711401.625,711746.5625,712099.875,0.0
1771964114.3673325,270680.875,710971.5,711492.8125,711515.0625,711378.1875,711405.1875,711749.875,712103.1875,0.0
1771964114.3673825,270715.3125,711184.0625,711705.4375,711727.75,711590.8125,711617.625,711962.8125,712315.8125,0.0
1771964114.3673928,270621.15625,711210.8125,711732.0,711754.5,711617.6875,711644.4375,711989.625,712343.0,0.0
1771964114.3744094,270579.15625,711000.4375,711521.625,711543.9375,711407.4375,711434.0,711779.1875,712132.5,0.0
1771964114.3744762,270675.0,710951.375,711472.6875,711495.0625,711358.5,711385.0,711730.0625,712083.3125,0.0
1771964114.3744967,270724.875,711150.3125,711671.625,711694.125,711557.375,711584.1875,711929.3125,712282.375,0.0
1771964114.3772964,270639.3125,711229.75,711751.1875,711773.625,711636.75,711663.5,712008.875,712362.0,0.0
1771964114.3793447,270575.375,711039.3125,711560.75,711582.8125,711446.125,711473.125,711818.1875,712171.0625,0.0
1771964114.3984787,270649.875,710935.5625,711456.75,711478.875,711342.125,711368.8125,711714.1875,712067.0,0.0
1771964114.4003742,270713.25,711112.125,711633.375,711655.8125,711518.5625,711545.1875,711890.875,712243.5625,0.0
1771964114.4034755,270649.15625,711241.6875,711762.625,711785.1875,711648.1875,711674.8125,712020.375,712373.1875,0.0
1771964114.4055617,270565.90625,711078.125,711599.0,711621.75,711484.6875,711511.375,711856.875,712209.875,0.0
1771964114.4083867,270630.8125,710932.5625,711453.5625,711476.25,711339.1875,711365.875,711711.5625,712063.875,0.0
1771964114.4104867,270725.5,711077.25,711598.0625,711620.75,711483.6875,711510.0,711856.125,712208.625,0.0
1771964114.4156067,270676.15625,711244.875,711765.6875,711788.5,711650.9375,711678.25,712023.625,712376.4375,0.0
1771964114.4183335,270573.59375,711120.625,711641.75,711664.625,711527.3125,711554.4375,711899.3125,712252.3125,0.0
1771964114.4256716,270612.40625,710934.8125,711456.3125,711479.125,711341.875,711368.25,711713.8125,712066.375,0.0
1771964114.4334023,270709.84375,711032.625,711553.875,711576.9375,711439.6875,711466.0625,711812.0625,712164.625,0.0
1771964114.4356143,270689.375,711231.125,711752.1875,711774.8125,711637.9375,711664.3125,712010.1875,712362.8125,0.0
1771964114.438357,270582.53125,711160.75,711682.0625,711705.0,711567.75,711594.4375,711940.4375,712293.1875,0.0
1771964114.4411016,270591.46875,710954.3125,711474.9375,711498.0,711361.0,711387.6875,711733.3125,712086.125,0.0
1771964114.4411747,270696.4375,711002.125,711523.0,711545.625,711408.5,711435.3125,711780.625,712133.875,0.0
1771964114.443305,270707.8125,711214.1875,711735.125,711757.8125,711620.5,711647.5625,711992.875,712346.1875,0.0
1771964114.4459808,270602.375,711194.125,711714.5625,711737.75,711600.5625,711627.1875,711972.9375,712325.75,0.0
1771964114.448115,270581.65625,710978.0625,711498.875,711521.875,711384.4375,711411.625,711757.1875,712109.625,0.0
1771964114.448187,270685.53125,710971.3125,711492.5625,711515.0625,711378.375,711404.9375,711750.1875,712103.1875,0.0
1771964114.4507835,270707.4375,711181.25,711702.75,711725.4375,711588.625,711615.125,711960.5625,712313.625,0.0
1771964114.4508352,270602.125,711216.875,711738.0625,711760.9375,711623.625,711650.4375,711996.1875,712349.0625,0.0
1771964114.4557636,270566.4375,711008.0625,711528.9375,711551.625,711414.75,711441.375,711786.75,712139.6875,0.0
1771964114.5117702,270661.125,710946.6875,711467.6875,711490.0625,711353.0625,711380.25,711725.1875,712078.3125,0.0
1771964114.5118368,270717.375,711146.25,711667.0,711689.75,711553.0625,711579.625,711924.9375,712278.25,0.0
1771964114.5118573,270628.9375,711236.9375,711757.25,711780.3125,711643.8125,711670.0,712015.5625,712369.0,0.0
1771964114.5244577,270556.53125,711048.875,711569.5,711592.3125,711455.5,711482.1875,711827.5625,712180.6875,0.0
1771964114.524496,270628.78125,710935.0625,711455.8125,711478.75,711341.875,711368.625,711714.0625,712066.625,0.0
1771964114.5245152,270705.46875,711107.75,711628.625,711651.25,711514.4375,711541.1875,711886.8125,712239.625,0.0
1771964114.526906,270648.0625,711246.0625,711766.8125,711789.375,711652.3125,711679.125,712024.9375,712378.0,0.0
1771964114.5291152,270562.875,711094.3125,711615.5625,711637.75,711500.875,711527.6875,711873.5625,712226.6875,0.0
1771964114.5317216,270608.375,710936.9375,711457.875,711480.3125,711343.5625,711370.5625,711716.0625,712069.1875,0.0
1771964114.5344152,270695.90625,711068.1875,711589.625,711612.4375,711475.1875,711502.4375,711847.5,712200.8125,0.0
1771964114.5369687,270666.0625,711244.25,711765.75,711788.9375,711651.5625,711678.5,712023.625,712376.75,0.0
1771964114.5392907,270568.78125,711133.1875,711654.8125,711677.6875,711540.8125,711567.75,711912.6875,712265.9375,0.0
1771964114.5454323,270602.46875,710944.75,711466.0625,711488.8125,711351.75,711379.0625,711724.0,712077.1875,0.0
1771964114.5483696,270698.3125,711033.6875,711554.6875,711577.75,711440.3125,711467.4375,711812.875,712165.875,0.0
1771964114.5508604,270676.0625,711235.9375,711756.9375,711779.625,711642.625,711669.1875,712014.875,712367.9375,0.0
1771964114.5531297,270569.125,711172.9375,711693.8125,711716.3125,711579.5,711606.1875,711951.5625,712304.625,0.0
1771964114.5558603,270573.0625,710963.8125,711484.875,711507.5625,711370.9375,711397.3125,711742.6875,712095.5,0.0
1771964114.5583625,270676.875,711002.25,711523.5,711546.0625,711409.5625,711436.1875,711781.5,712134.3125,0.0
1771964114.560376,270689.90625,711216.6875,711737.9375,711760.3125,711623.25,711650.4375,711995.375,712348.4375,0.0
1771964114.562982,270586.21875,711208.5,711729.5625,711752.375,711614.9375,711642.125,711987.3125,712340.1875,0.0
1771964114.5661542,270562.78125,710994.125,711515.1875,711538.125,711400.8125,711427.625,711773.25,712125.625,0.0
1771964114.5743356,270662.03125,710975.6875,711496.625,711519.4375,711382.1875,711409.3125,711755.0625,712107.5,0.0
1771964114.5743997,270699.65625,711186.875,711707.625,711730.5625,711593.5625,711620.3125,711965.6875,712318.9375,0.0
1771964114.5744104,270607.5,711234.875,711755.5,711778.75,711641.375,711668.25,712013.125,712366.5625,0.0
1771964114.574418,270558.75,711031.3125,711552.4375,711575.4375,711438.1875,711465.25,711810.5,712163.1875,0.0
1771964114.5744247,270648.4375,710959.3125,711480.4375,711503.0,711366.5,711393.125,711738.25,712091.375,0.0
1771964114.5768545,270708.78125,711151.6875,711672.6875,711695.375,711558.625,711585.0625,711930.125,712283.6875,0.0
1771964114.576927,270631.90625,711250.3125,711770.9375,711793.9375,711656.6875,711683.875,712028.8125,712382.25,0.0
1771964114.5794184,270564.5625,711071.4375,711591.875,711614.5625,711477.6875,711504.875,711849.8125,712202.8125,0.0
1771964114.5819724,270641.5625,710952.0625,711473.125,711495.25,711358.8125,711385.5,711730.875,712083.6875,0.0
1771964114.58474,270717.0,711118.25,711639.25,711661.625,711524.5625,711551.25,711897.125,712249.875,0.0
1771964114.5943606,270661.125,711266.25,711786.875,711809.0625,711672.4375,711699.25,712045.0,712397.8125,0.0
1771964114.5969608,270575.03125,711119.6875,711640.25,711662.5,711525.875,711552.6875,711898.5625,712251.125,0.0
1771964114.5998125,270627.59375,710955.75,711476.625,711499.3125,711362.4375,711388.8125,711735.0,712087.4375,0.0
1771964114.6017125,270726.40625,711082.6875,711603.9375,711626.375,711489.5625,711516.25,711862.25,712214.75,0.0
1771964114.60173,270701.46875,711264.0,711785.0625,711807.25,711670.875,711696.9375,712043.375,712395.8125,0.0
1771964114.6045125,270608.1875,711160.5,711681.25,711703.6875,711566.9375,711593.1875,711939.1875,712292.125,0.0
1771964114.6068676,270630.1875,710964.4375,711485.375,711507.9375,711371.3125,711397.875,711742.875,712096.125,0.0
1771964114.609424,270736.0625,711043.1875,711564.5,711586.75,711450.1875,711476.5625,711822.25,712175.5,0.0
1771964114.6429524,270733.375,711248.4375,711769.8125,711792.125,711655.375,711681.75,712027.375,712380.625,0.0
1771964114.642994,270629.21875,711198.9375,711720.0625,711742.0625,711605.1875,711631.8125,711977.1875,712330.375,0.0
1771964114.6458795,270617.5,710985.5,711506.8125,711529.1875,711392.25,711419.125,711764.3125,712117.875,0.0
1771964114.645955,270721.46875,711011.625,711532.75,711555.0625,711418.0,711444.8125,711790.25,712143.625,0.0
1771964114.648503,270738.46875,711224.0625,711745.125,711767.125,711630.3125,711656.75,712002.6875,712355.875,0.0
1771964114.6503563,270637.96875,711227.0,711748.0625,711770.25,711633.0,711660.0,712005.625,712359.0625,0.0
1771964114.653473,270616.25,711013.125,711534.1875,711556.8125,711419.6875,711446.5,711791.875,712145.3125,0.0
1771964114.6596353,270716.125,710987.0,711508.25,711530.375,711393.75,711420.375,711765.75,712119.375,0.0
1771964114.6621244,270761.90625,711194.625,711715.625,711737.9375,711601.0,711627.625,711973.1875,712326.6875,0.0
1771964114.6647625,270669.09375,711251.75,711773.0,711795.625,711658.625,711684.875,712030.5625,712383.75,0.0
1771964114.666616,270605.96875,711050.9375,711571.9375,711594.4375,711457.75,711484.25,711829.875,712182.875,0.0
1771964114.6692393,270686.0625,710968.25,711489.0625,711511.375,711374.9375,711401.25,711746.875,712100.0625,0.0
1771964114.6728935,270751.875,711156.125,711677.3125,711699.625,711563.1875,711589.375,711934.9375,712288.1875,0.0
1771964114.67291,270677.21875,711268.75,711790.0625,711812.1875,711675.5625,711702.125,712047.75,712400.9375,0.0
1771964114.6729214,270597.75,711092.0625,711613.125,711635.6875,711498.625,711525.625,711870.8125,712224.0,0.0
1771964114.6753285,270657.8125,710958.0,711478.75,711501.75,711364.6875,711391.125,711737.125,712089.875,0.0
1771964114.6971612,270734.4375,711117.375,711637.75,711661.1875,711523.75,711550.1875,711896.3125,712249.25,0.0
1771964114.697232,270681.96875,711273.3125,711794.3125,711817.375,711679.75,711706.75,712052.25,712405.375,0.0
1771964114.6992493,270590.0625,711136.0,711657.0625,711679.875,711542.4375,711569.25,711914.625,712267.625,0.0
1771964114.7031496,270633.40625,710965.5625,711486.8125,711509.375,711372.125,711398.9375,711744.6875,712097.3125,0.0
1771964114.703268,270725.3125,711081.0,711601.875,711624.4375,711487.5,711514.25,711860.1875,712212.6875,0.0
1771964114.7032895,270699.65625,711266.4375,711787.25,711809.9375,711672.875,711699.4375,712045.5,712398.25,0.0
1771964114.707158,270597.90625,711175.3125,711696.1875,711718.75,711581.6875,711608.5625,711954.0625,712306.6875,0.0
1771964114.7072349,270614.8125,710974.625,711495.3125,711517.75,711380.9375,711408.0625,711753.25,712106.125,0.0
1771964114.707265,270718.34375,711040.75,711561.625,711584.625,711447.5,711474.125,711819.5625,712172.75,0.0
1771964114.7096205,270710.40625,711246.125,711767.4375,711790.0625,711652.75,711679.3125,712025.375,712377.9375,0.0
1771964114.7129843,270610.875,711207.125,711728.5625,711751.375,711614.125,711640.75,711986.6875,712339.25,0.0
1771964114.744766,270599.875,710994.4375,711515.625,711538.5,711401.5,711428.25,711773.875,712126.6875,0.0
1771964114.7448409,270698.9375,711008.6875,711529.9375,711552.5,711415.5,711442.3125,711788.0,712140.8125,0.0
1771964114.7710104,270726.21875,711221.25,711742.4375,711764.8125,711628.0625,711654.875,712000.75,712353.8125,0.0
1771964114.7710855,270625.1875,711236.625,711758.1875,711780.625,711643.75,711670.5625,712016.3125,712369.1875,0.0
1771964114.7711167,270585.65625,711026.125,711547.25,711570.125,711432.875,711459.75,711805.3125,712158.25,0.0
1771964114.7745245,270679.0,710987.375,711508.1875,711531.0,711394.1875,711420.8125,711766.375,712119.375,0.0
1771964114.7745988,270737.21875,711193.9375,711714.25,711737.125,711600.375,711627.0,711972.75,712325.4375,0.0
1771964114.774619,270656.65625,711265.8125,711786.0625,711809.3125,711672.3125,711699.0625,712044.625,712397.3125,0.0
1771964114.7771735,270595.96875,711069.625,711590.1875,711613.125,711476.25,711503.25,711848.5625,712201.1875,0.0
1771964114.7798693,270677.03125,710976.9375,711497.1875,711519.8125,711383.125,711410.3125,711755.375,712108.8125,0.0
1771964114.781701,270746.78125,711160.0625,711680.5,711703.25,711566.5,711593.1875,711938.3125,712292.4375,0.0
1771964114.784886,270677.75,711280.75,711801.5,711824.0625,711687.25,711714.0,712059.1875,712412.6875,0.0
1771964114.7870607,270592.8125,711108.5625,711629.6875,711652.1875,711515.0625,711542.1875,711887.25,712240.4375,0.0
1771964114.7897193,270649.0625,710966.375,711487.6875,711510.25,711373.375,711400.1875,711745.1875,712098.25,0.0
1771964114.7935247,270733.46875,711117.625,711639.1875,711661.625,711524.8125,711551.375,711896.5625,712249.75,0.0
1771964114.7936,270684.75,711281.4375,711802.75,711825.6875,711688.25,711714.6875,712060.0625,712413.4375,0.0
1771964114.7936268,270594.15625,711155.0,711676.5625,711698.25,711561.9375,711588.3125,711933.6875,712287.375,0.0
1771964114.80309,270636.0,710977.5625,711498.8125,711520.8125,711384.4375,711411.0,711756.1875,712109.8125,0.0
1771964114.8058636,270735.875,711085.4375,711606.6875,711629.75,711492.8125,711519.4375,711864.5625,712217.875,0.0
1771964114.810471,270711.28125,711275.4375,711796.625,711819.5625,711682.8125,711709.25,712054.8125,712407.4375,0.0
1771964114.810521,270603.90625,711193.3125,711714.25,711737.125,711600.5625,711626.9375,711972.1875,712325.1875,0.0
1771964114.81358,270614.71875,710989.0625,711510.0,711533.0625,711396.0625,711422.625,711767.8125,712120.6875,0.0
1771964114.8162217,270720.84375,711046.875,711567.625,711590.25,711453.4375,711480.3125,711825.75,712178.375,0.0
1771964114.820562,270728.28125,711260.625,711781.4375,711804.0625,711667.3125,711694.125,712039.4375,712392.4375,0.0
1771964114.823134,270621.34375,711231.5625,711752.1875,711774.25,711637.625,711664.625,712009.9375,712362.5625,0.0
1771964114.825889,270603.28125,711018.25,711538.875,711561.375,711424.25,711450.875,711796.5,712149.0625,0.0
1771964114.8283546,270704.40625,711023.875,711544.6875,711567.3125,711430.3125,711456.875,711802.3125,712155.125,0.0
1771964114.8332934,270733.90625,711234.0,711755.1875,711777.75,711641.125,711667.625,712013.0,712366.25,0.0
1771964114.835698,270639.21875,711259.875,711781.125,711803.75,711666.6875,711693.4375,712039.0625,712392.25,0.0
1771964114.8411293,270601.75,711052.5,711573.4375,711596.6875,711459.25,711486.125,711831.75,712185.0625,0.0
1771964114.8412611,270698.6875,711002.5,711523.1875,711546.25,711409.0625,711435.75,711781.3125,712134.5,0.0
1771964114.8434916,270754.75,711204.125,711724.625,711747.625,711610.9375,711637.0,711983.0,712336.4375,0.0
1771964114.8466096,270670.53125,711286.625,711807.3125,711829.75,711693.5,711720.0625,712065.1875,712418.4375,0.0
1771964114.8503788,270603.03125,711093.8125,711614.875,711637.0,711500.875,711527.4375,711872.5,712225.5,0.0
1771964114.8844328,270679.1875,710990.25,711511.25,711533.75,711397.25,711423.5,711769.1875,712122.4375,0.0
1771964114.8845208,270752.78125,711167.625,711688.8125,711711.6875,711574.8125,711601.0625,711946.625,712300.0,0.0
1771964114.8892608,270687.5,711296.125,711816.9375,711840.125,711703.0,711729.375,712074.875,712428.4375,0.0
1771964114.889302,270607.84375,711136.3125,711657.125,711679.9375,711542.875,711569.5,711914.8125,712268.25,0.0
1771964114.8916993,270664.25,710987.375,711508.875,711531.5,711394.4375,711420.625,711766.375,712119.4375,0.0
1771964114.894612,270749.46875,711129.5625,711650.625,711673.4375,711536.625,711562.625,711908.125,712261.25,0.0
1771964114.897267,270710.84375,711300.875,711821.75,711844.375,711707.75,711733.9375,712079.5,712432.625,0.0
1771964114.9035935,270618.65625,711181.0625,711702.1875,711724.625,711588.1875,711614.375,711959.875,712312.875,0.0
1771964114.9056232,270655.84375,710995.375,711516.5,711538.875,711402.125,711428.625,711774.0625,712127.0,0.0
1771964114.913426,270752.78125,711093.875,711614.875,711637.4375,711500.875,711527.125,711872.6875,712225.5,0.0
1771964114.9135015,270740.15625,711290.9375,711811.75,711834.4375,711697.625,711724.25,712069.6875,712423.0,0.0
1771964114.9157956,270639.5,711222.1875,711743.25,711765.75,711628.875,711655.8125,712001.0,712354.0625,0.0
1771964114.9184208,270637.09375,711015.1875,711536.25,711558.5,711422.1875,711449.0,711794.125,712147.1875,0.0
1771964114.9184973,270737.75,711060.8125,711581.75,711604.375,711467.5625,711494.625,711839.5,712192.6875,0.0
1771964114.9205656,270748.9375,711270.25,711791.625,711814.125,711677.5,711704.0625,712049.1875,712402.25,0.0
1771964114.923131,270646.46875,711254.5625,711776.125,711798.5,711661.9375,711688.5,712033.6875,712386.625,0.0
1771964114.9279933,270629.21875,711042.8125,711564.25,711586.875,711449.875,711476.5625,711821.9375,712174.625,0.0
1771964114.9310071,270733.71875,711036.8125,711557.625,711580.4375,711443.4375,711470.25,711815.75,712168.375,0.0
1771964114.931082,270766.8125,711246.9375,711767.75,711790.375,711653.5,711680.375,712025.5625,712378.75,0.0
1771964114.9334254,270672.84375,711284.3125,711805.5625,711828.0625,711690.75,711717.9375,712063.375,712416.375,0.0
1771964114.9355989,270626.4375,711075.8125,711596.8125,711620.0625,711482.8125,711509.625,711854.875,712207.875,0.0
1771964114.9379437,270717.90625,711012.5,711533.5,711556.4375,711419.75,711446.25,711791.4375,712144.375,0.0
1771964114.9704475,270769.3125,711207.625,711728.5,711751.625,711614.6875,711641.0625,711986.5,712339.5,0.0
1771964114.9743032,270685.53125,711300.5625,711821.3125,711844.4375,711707.8125,711733.75,712079.5625,712432.625,0.0
1771964114.9743216,270624.90625,711115.75,711636.6875,711659.8125,711522.75,711548.9375,711895.125,712247.6875,0.0
1771964114.974331,270701.625,711000.25,711521.6875,711544.5,711407.6875,711434.0625,711779.8125,712131.875,0.0
1771964114.9770648,270775.5625,711170.3125,711692.0,711714.25,711577.75,711604.375,711949.875,712302.375,0.0
1771964114.9795487,270714.40625,711310.3125,711831.75,711854.4375,711717.375,711744.3125,712089.75,712442.75,0.0
1771964114.9821475,270619.5625,711158.3125,711679.5,711702.3125,711565.375,711591.875,711937.1875,712290.5,0.0
1771964114.9844708,270672.65625,710999.5625,711521.0,711543.5,711406.875,711433.4375,711778.5625,712131.875,0.0
1771964114.986833,270767.53125,711132.75,711654.4375,711676.5625,711540.0,711566.375,711911.75,712265.4375,0.0
1771964114.9942503,270731.75,711308.4375,711829.75,711852.25,711715.25,711742.0625,712087.4375,712440.875,0.0
1771964115.0043552,270634.03125,711200.8125,711722.125,711744.6875,711607.625,711634.6875,711979.625,712332.625,0.0
1771964115.0072153,270662.28125,711014.375,711535.375,711558.1875,711421.25,711448.375,711793.0625,712146.3125,0.0
1771964115.0096252,270758.21875,711102.75,711624.0625,711646.5625,711509.5,711536.8125,711881.5625,712235.0625,0.0
1771964115.0120149,270743.46875,711301.8125,711823.25,711845.6875,711708.875,711736.0625,712080.9375,712434.0625,0.0
1771964115.0120869,270640.375,711243.8125,711764.625,711787.6875,711650.625,711677.625,712022.75,712375.8125,0.0
1771964115.0144236,270637.53125,711033.5,711554.6875,711577.8125,711440.6875,711467.25,711812.6875,712165.5625,0.0
1771964115.0194263,270739.1875,711068.75,711590.1875,711612.6875,711475.625,711502.125,711847.6875,712201.1875,0.0
1771964115.0195036,270756.34375,711279.0625,711800.5625,711823.0,711686.125,711712.6875,712058.5,712411.9375,0.0
1771964115.0221317,270656.65625,711272.125,711793.5,711816.375,711679.5,711706.0625,712051.75,712404.5625,0.0
1771964115.024542,270629.46875,711058.5625,711579.6875,711602.625,711465.625,711492.375,711837.75,712190.375,0.0
1771964115.0246148,270733.1875,711041.1875,711562.5625,711584.875,711448.4375,711475.375,711820.6875,712173.1875,0.0
1771964115.0269647,270776.09375,711249.0,711770.5625,711792.875,711656.25,711683.0625,712028.625,712381.3125,0.0
1771964115.0310524,270684.90625,711299.875,711820.9375,711843.625,711706.75,711733.25,712079.0625,712432.0,0.0
1771964115.0384462,270639.75,711096.375,711617.0625,711639.8125,711502.9375,711529.5625,711875.375,712228.4375,0.0
1771964115.0385213,270729.34375,711020.1875,711541.25,711563.875,711427.0,711453.8125,711799.375,712152.5625,0.0
1771964115.079848,270788.34375,711215.0,711736.25,711759.0,711622.0625,711648.625,711994.375,712347.5625,0.0
1771964115.079944,270712.375,711319.6875,711840.6875,711863.25,711726.3125,711753.1875,712098.6875,712451.875,0.0
1771964115.0820017,270643.4375,711141.4375,711662.3125,711685.3125,711548.0625,711574.8125,711920.4375,712273.625,0.0
1771964115.0820749,270710.125,711015.8125,711536.5,711559.5,711422.375,711449.1875,711794.8125,712147.875,0.0
1771964115.084633,270782.09375,711177.375,711698.625,711720.625,711584.1875,711611.0625,711956.375,712309.5625,0.0
1771964115.0868516,270730.40625,711325.875,711847.3125,711869.1875,711733.3125,711759.625,712105.4375,712458.25,0.0
1771964115.0893407,270642.0,711181.0625,711702.3125,711724.4375,711588.125,711615.0,711960.5625,712313.375,0.0
1771964115.0918963,270687.0625,711013.6875,711535.125,711557.8125,711420.8125,711447.8125,711793.3125,712146.375,0.0
1771964115.094323,270781.65625,711138.9375,711659.8125,711683.0,711545.9375,711573.0,711918.1875,712271.1875,0.0
1771964115.097165,270753.21875,711320.4375,711841.6875,711864.5,711727.5625,711754.125,712099.625,712452.875,0.0
1771964115.0996428,270654.96875,711220.0,711741.4375,711763.8125,711627.375,711653.625,711999.3125,712352.1875,0.0
1771964115.104626,270673.75,711024.5,711545.75,711568.4375,711431.75,711458.125,711803.5,712156.5,0.0
1771964115.1258776,270774.21875,711101.8125,711623.0,711645.5,711508.625,711535.125,711880.375,712233.8125,0.0
1771964115.128314,270772.1875,711307.4375,711828.6875,711851.3125,711714.25,711740.75,712086.75,712439.5625,0.0
1771964115.1309388,270665.4375,711259.25,711780.25,711803.375,711666.1875,711692.8125,712038.875,712391.5,0.0
1771964115.1334045,270657.375,711047.75,711569.25,711592.0625,711455.25,711481.875,711827.75,712180.5,0.0
1771964115.1334794,270758.125,711072.125,711594.125,711616.625,711480.0,711506.6875,711852.25,712205.0,0.0
1771964115.1357536,270780.5,711284.75,711805.9375,711828.625,711691.5625,711717.9375,712064.3125,712417.0,0.0
1771964115.1358273,270682.0625,711291.125,711812.0,711834.8125,711697.8125,711724.5625,712070.625,712423.375,0.0
1771964115.1382518,270652.90625,711078.375,711599.625,711622.25,711485.625,711512.3125,711858.1875,712210.9375,0.0
1771964115.1405914,270741.6875,711047.8125,711569.0,711591.4375,711455.4375,711481.875,711827.375,712179.875,0.0
1771964115.1431036,270788.53125,711253.625,711774.875,711797.125,711660.875,711687.5625,712033.0,712385.8125,0.0
1771964115.1458743,270699.125,711314.875,711835.9375,711858.0625,711721.6875,711748.25,712094.0625,712446.625,0.0
1771964115.14848,270647.375,711117.3125,711638.625,711660.875,711524.5625,711551.1875,711897.0,712249.1875,0.0
1771964115.1504643,270729.34375,711032.625,711554.125,711576.875,711440.0625,711466.9375,711812.625,712165.25,0.0
1771964115.1535845,270789.6875,711219.375,711740.625,711763.0,711626.5,711652.9375,711998.6875,712351.5625,0.0
1771964115.15366,270705.84375,711332.6875,711853.75,711876.0,711739.1875,711765.6875,712111.5,712464.5625,0.0
1771964115.1560085,270630.65625,711159.5,711680.5625,711702.9375,711566.125,711593.1875,711938.5625,712291.375,0.0
1771964115.1577518,270703.5,711026.8125,711548.0625,711570.4375,711433.5,711460.5,711806.25,712158.875,0.0
1771964115.181672,270785.84375,711184.1875,711705.4375,711727.875,711591.0,711617.875,711963.6875,712316.125,0.0
1771964115.181721,270737.9375,711340.0,711860.875,711883.5,711747.0625,711773.25,712119.25,712471.875,0.0
1771964115.1895213,270649.96875,711202.875,711724.125,711746.5625,711610.125,711636.1875,711982.25,712335.0,0.0
1771964115.1896207,270688.40625,711028.3125,711550.1875,711572.5625,711435.75,711462.4375,711807.9375,712160.5625,0.0
1771964115.1896536,270780.59375,711144.125,711666.0,711688.3125,711551.5625,711578.125,711923.8125,712276.75,0.0
1771964115.1928976,270754.21875,711333.0625,711854.25,711876.75,711740.0,711766.3125,712112.5,712465.1875,0.0
1771964115.1929133,270656.21875,711244.25,711765.4375,711787.875,711651.25,711677.9375,712023.4375,712376.3125,0.0
1771964115.1929245,270673.5625,711044.5,711565.9375,711588.625,711451.9375,711478.5,711824.0,712176.6875,0.0
1771964115.2054,270769.84375,711111.1875,711632.0,711655.375,711518.5625,711545.3125,711890.6875,712243.4375,0.0
1771964115.205417,270760.46875,711317.75,711838.625,711861.875,711725.0625,711751.625,712097.0,712450.1875,0.0
1771964115.2079701,270662.46875,711280.125,711801.0,711823.875,711687.1875,711713.9375,712059.375,712413.0,0.0
1771964115.2105498,270664.09375,711068.3125,711589.5625,711612.4375,711475.375,711502.375,711847.5625,712201.0,0.0
1771964115.2159212,270768.6875,711081.875,711603.5,711626.1875,711489.0625,711516.0625,711861.1875,712214.875,0.0
1771964115.2185736,270800.4375,711296.75,711817.8125,711840.4375,711703.4375,711730.5625,712075.5625,712429.1875,0.0
1771964115.2186508,270703.25,711316.75,711837.375,711860.4375,711723.5625,711750.5625,712095.875,712448.8125,0.0
1771964115.220723,270671.21875,711105.6875,711626.3125,711649.4375,711512.75,711539.5,711884.6875,712237.625,0.0
1771964115.2228816,270762.4375,711063.5625,711584.0,711607.0,711470.25,711497.25,711842.5625,712195.375,0.0
1771964115.2292645,270807.9375,711264.9375,711786.3125,711808.5,711671.8125,711698.875,712044.25,712397.0625,0.0
1771964115.229303,270724.625,711339.0,711860.5625,711883.0,711746.1875,711772.8125,712118.375,712471.25,0.0
1771964115.2659,270666.125,711145.5625,711666.6875,711689.6875,711553.0,711579.4375,711924.8125,712278.0625,0.0
1771964115.265976,270747.84375,711049.375,711570.6875,711593.1875,711456.75,711483.5,711828.8125,712181.5,0.0
1771964115.2696176,270813.40625,711230.125,711751.1875,711774.0625,711637.125,711663.75,712009.375,712362.0,0.0
1771964115.269687,270746.875,711352.625,711873.4375,711896.3125,711759.4375,711786.0625,712131.6875,712484.875,0.0
1771964115.2697115,270665.25,711185.0625,711706.25,711728.8125,711592.0625,711618.25,711964.25,712317.5625,0.0
1771964115.2697356,270728.09375,711043.375,711564.75,711587.5625,711450.625,711476.875,711822.6875,712176.0625,0.0
1771964115.2724285,270819.03125,711193.0,711714.25,711737.4375,711600.25,711626.75,711972.625,712325.625,0.0
1771964115.272502,270771.46875,711355.9375,711877.25,711900.3125,711763.1875,711789.625,712135.625,712488.375,0.0
1771964115.274859,270675.53125,711226.4375,711747.8125,711770.25,711633.375,711660.0625,712006.25,712358.875,0.0
1771964115.2770724,270713.625,711046.1875,711567.4375,711590.1875,711453.3125,711479.6875,711825.875,712178.375,0.0
1771964115.2795663,270808.84375,711153.6875,711675.1875,711698.25,711560.9375,711587.5,711933.3125,712286.5,0.0
1771964115.2817705,270791.3125,711350.9375,711872.4375,711895.3125,711758.0,711784.5625,712130.4375,712483.625,0.0
1771964115.2843208,270685.625,711269.0,711790.5625,711813.5,711676.1875,711702.625,712048.5,712401.625,0.0
1771964115.287148,270694.65625,711063.375,711584.8125,711607.625,711470.5625,711497.1875,711842.75,712196.1875,0.0
1771964115.2933848,270795.96875,711120.0,711641.375,711664.4375,711527.3125,711553.9375,711899.4375,712252.6875,0.0
1771964115.2967708,270796.9375,711330.375,711851.875,711874.6875,711737.6875,711764.0,712110.0,712463.0625,0.0
1771964115.2968116,270695.90625,711302.875,711824.4375,711846.9375,711710.0625,711736.875,712082.1875,712435.4375,0.0
1771964115.328476,270675.09375,711089.3125,711610.75,711633.4375,711496.3125,711523.75,711868.5625,712221.625,0.0
1771964115.33199,270778.0,711093.1875,711614.5625,711637.1875,711499.9375,711527.0625,711872.6875,712225.3125,0.0
1771964115.3320518,270805.15625,711303.8125,711824.9375,711848.0,711710.3125,711737.625,712083.0,712435.8125,0.0
1771964115.3320663,270704.9375,711332.5,711853.75,711876.625,711739.5,711766.6875,712112.1875,712464.75,0.0
1771964115.3345027,270666.0625,711124.1875,711645.3125,711668.3125,711531.0625,711558.1875,711903.875,712256.4375,0.0
1771964115.3367856,270758.0625,711071.6875,711592.75,711615.75,711478.75,711505.75,711851.0,712203.875,0.0
1771964115.3423,270802.40625,711270.0625,711791.0,711813.9375,711677.0625,711704.0,712049.1875,712401.875,0.0
1771964115.3442593,270724.625,711354.375,711874.8125,711898.0625,711760.875,711788.125,712133.25,712486.3125,0.0
1771964115.350774,270667.03125,711162.6875,711683.5,711706.375,711569.4375,711596.3125,711941.5625,712294.8125,0.0
1771964115.3534098,270739.625,711055.8125,711577.0,711599.625,711462.9375,711489.875,711835.0625,712187.75,0.0
1771964115.3559356,270814.46875,711232.4375,711753.625,711775.75,711639.4375,711666.0,712011.4375,712364.5,0.0
1771964115.363212,270750.53125,711365.0625,711886.1875,711909.0,711772.1875,711798.875,712144.375,712497.5625,0.0
1771964115.3633127,270659.4375,711203.6875,711724.8125,711747.625,711610.625,711637.625,711983.1875,712336.1875,0.0
1771964115.3653743,270722.375,711053.125,711574.1875,711597.125,711460.0625,711487.0,711832.75,712185.4375,0.0
1771964115.3684006,270806.40625,711192.25,711713.0,711735.75,711599.3125,711625.8125,711971.375,712324.125,0.0
1771964115.3684754,270774.78125,711365.25,711886.375,711909.0,711772.5,711799.125,712144.75,712497.5,0.0
1771964115.3708985,270682.59375,711249.0,711770.4375,711792.5625,711656.3125,711682.875,712028.5625,712381.4375,0.0
1771964115.3735394,270713.96875,711064.25,711585.625,711608.125,711471.5,711498.375,711843.4375,712196.5,0.0
1771964115.3735905,270812.21875,711158.3125,711679.6875,711702.5625,711565.75,711592.5,711937.8125,712290.9375,0.0
1771964115.3757532,270801.15625,711356.1875,711877.5,711900.3125,711763.5,711790.0,712135.625,712488.5625,0.0
1771964115.409686,270707.0,711289.375,711810.375,711833.6875,711696.625,711723.3125,712068.5625,712421.8125,0.0
1771964115.4121635,270720.125,711082.4375,711603.5625,711626.625,711489.75,711516.5625,711861.9375,712215.0625,0.0
1771964115.4122388,270816.53125,711127.125,711648.1875,711671.0,711534.1875,711560.875,711906.875,712259.625,0.0
1771964115.4207857,270816.0625,711336.4375,711857.4375,711879.6875,711742.9375,711770.125,712115.8125,712468.6875,0.0
1771964115.4234345,270708.875,711319.1875,711840.4375,711862.875,711726.0,711753.5,712098.6875,712451.6875,0.0
1771964115.425681,270690.8125,711106.5625,711627.625,711649.6875,711513.25,711540.125,711885.6875,712238.4375,0.0
1771964115.4278812,270792.90625,711097.4375,711618.6875,711640.75,711504.0,711531.0625,711876.8125,712229.0625,0.0
1771964115.430478,270832.25,711309.8125,711830.75,711853.9375,711716.4375,711743.5,712089.4375,712441.6875,0.0
1771964115.4328825,270734.4375,711350.0,711871.0,711894.0625,711756.75,711783.625,712129.5625,712482.0,0.0
1771964115.4353826,270683.03125,711141.25,711662.9375,711685.1875,711548.25,711575.0625,711921.0625,712273.625,0.0
1771964115.4381328,270783.875,711078.125,711599.625,711622.625,711485.1875,711512.3125,711857.5625,712210.5625,0.0
1771964115.4403484,270837.625,711274.8125,711795.6875,711818.6875,711681.4375,711708.25,712053.625,712407.0,0.0
1771964115.4454765,270755.46875,711368.1875,711889.125,711912.3125,711775.125,711801.875,712147.875,712500.5,0.0
1771964115.4482431,270690.09375,711183.875,711704.875,711727.75,711590.875,711617.8125,711963.6875,712316.0625,0.0
1771964115.4483168,270761.71875,711068.9375,711589.8125,711612.875,711475.8125,711502.625,711848.375,712201.0625,0.0
1771964115.4554837,270833.5,711237.125,711758.0625,711781.0625,711643.875,711670.75,712016.625,712369.5,0.0
1771964115.4957225,270774.40625,711377.375,711898.25,711921.25,711784.1875,711811.0,712156.9375,712509.75,0.0
1771964115.4983535,270691.625,711224.75,711746.0,711768.875,711631.9375,711658.8125,712004.6875,712357.1875,0.0
1771964115.502206,270743.84375,711064.5625,711585.6875,711608.5625,711471.875,711498.8125,711844.625,712196.875,0.0
1771964115.5022829,270822.25,711194.1875,711715.3125,711738.25,711602.0,711628.1875,711974.1875,712327.0,0.0
1771964115.502304,270791.75,711375.6875,711896.75,711919.4375,711782.75,711809.1875,712154.9375,712507.8125,0.0
1771964115.5041256,270700.75,711267.9375,711789.1875,711811.8125,711674.9375,711701.5,712047.5,712399.9375,0.0
1771964115.5096395,270729.71875,711077.6875,711599.3125,711621.8125,711484.5625,711511.0625,711857.3125,712209.5,0.0
1771964115.5119977,270824.46875,711163.9375,711685.375,711708.125,711570.75,711597.4375,711943.625,712296.0625,0.0
1771964115.5147333,270805.15625,711366.125,711886.8125,711909.8125,711772.8125,711799.3125,712145.1875,712498.375,0.0
1771964115.5174856,270697.34375,711306.8125,711827.4375,711850.5,711713.4375,711740.5625,712085.8125,712439.0,0.0
1771964115.5195324,270701.71875,711098.25,711619.4375,711642.1875,711505.25,711532.4375,711877.6875,712230.3125,0.0
1771964115.5218537,270805.0625,711132.0625,711653.3125,711676.25,711538.875,711566.125,711911.5,712264.1875,0.0
1771964115.5243163,270812.75,711343.6875,711865.375,711888.3125,711750.5,711777.8125,712123.3125,712476.0,0.0
1771964115.5384266,270709.21875,711339.3125,711860.8125,711883.5,711746.0,711773.125,712118.8125,712471.125,0.0
1771964115.5409527,270684.1875,711123.375,711644.875,711667.4375,711530.4375,711557.375,711902.9375,712255.375,0.0
1771964115.5434365,270785.9375,711103.1875,711624.6875,711647.0625,711510.0,711537.125,711882.6875,712235.0625,0.0
1771964115.5435112,270827.6875,711315.0625,711836.5625,711859.125,711721.875,711748.6875,712094.625,712447.0625,0.0
1771964115.5456269,270734.09375,711366.375,711887.8125,711910.625,711773.25,711799.625,712145.8125,712498.5625,0.0
1771964115.5484047,270678.3125,711159.9375,711680.9375,711703.25,711566.5625,711593.5625,711939.0625,712291.5625,0.0
1771964115.5508747,270766.375,711085.125,711605.8125,711628.4375,711492.0,711518.9375,711864.5,712216.4375,0.0
1771964115.5509615,270828.5,711278.5,711799.5,711822.0,711685.3125,711712.3125,712057.875,712410.1875,0.0
1771964115.5528836,270757.25,711383.8125,711905.25,711927.75,711790.8125,711818.0,712163.375,712516.0625,0.0
1771964115.5559547,270685.09375,711205.625,711726.875,711749.5,711612.8125,711639.875,711985.4375,712337.625,0.0
1771964115.5579996,270757.34375,711080.3125,711602.0,711624.5,711487.875,711515.0,711860.375,712212.5625,0.0
1771964115.5603807,270840.125,711242.8125,711764.875,711787.125,711650.4375,711677.4375,712022.875,712375.4375,0.0
1771964115.563427,270784.15625,711391.4375,711913.125,711935.1875,711798.5625,711825.6875,712171.25,712523.75,0.0
1771964115.5663545,270693.125,711248.25,711769.8125,711791.6875,711655.1875,711682.1875,712027.75,712380.375,0.0
1771964115.5664573,270744.28125,711080.8125,711602.0625,711624.5,711487.6875,711514.6875,711860.25,712212.6875,0.0
1771964115.5682757,270838.6875,711204.3125,711725.375,711748.25,711611.5625,711638.0625,711984.0,712336.25,0.0
1771964115.570919,270804.8125,711390.0625,711911.25,711934.125,711797.25,711823.625,712169.8125,712522.3125,0.0
1771964115.5733345,270709.5,711293.0,711814.0625,711837.0,711700.0625,711726.4375,712072.5,712424.875,0.0
1771964115.5734105,270727.5625,711096.8125,711618.0625,711640.5,711503.8125,711530.8125,711876.75,712229.25,0.0
1771964115.5783315,270819.90625,711172.125,711693.375,711715.5,711578.875,711605.75,711951.4375,712304.1875,0.0
1771964115.5804849,270811.15625,711375.25,711896.5625,711919.25,711782.3125,711809.3125,712154.5,712507.5625,0.0
1771964115.5845485,270708.25,711324.0,711845.5,711867.6875,711731.5,711758.25,712103.625,712456.625,0.0
1771964115.584597,270705.65625,711112.3125,711633.625,711655.4375,711519.625,711546.4375,711892.0,712244.75,0.0
1771964115.619936,270805.0625,711136.0625,711657.3125,711679.5,711543.3125,711570.3125,711915.5,712268.5,0.0
1771964115.6217833,270825.0,711346.8125,711868.0625,711890.5,711754.125,711780.5,712126.4375,712479.25,0.0
1771964115.621832,270730.0625,711355.125,711876.75,711899.1875,711762.875,711789.0,712135.375,712488.0625,0.0
1771964115.6246903,270704.3125,711143.75,711665.4375,711687.8125,711551.4375,711577.9375,711924.0,712276.4375,0.0
1771964115.6247644,270801.78125,711112.4375,711634.1875,711656.25,711519.8125,711546.6875,711892.4375,712245.4375,0.0
1771964115.63346,270849.96875,711318.75,711840.125,711862.25,711725.8125,711752.875,712098.4375,712451.25,0.0
1771964115.6357014,270755.8125,711379.0,711900.3125,711922.9375,711786.25,711813.125,712158.875,712511.75,0.0
1771964115.638562,270698.25,711177.4375,711698.8125,711721.4375,711584.6875,711611.4375,711957.125,712309.875,0.0
1771964115.640926,270786.3125,711094.125,711615.5625,711637.9375,711501.125,711528.125,711873.75,712226.3125,0.0
1771964115.6429272,270842.0,711282.0,711802.9375,711825.5,711688.3125,711715.5,712061.1875,712413.875,0.0
1771964115.642942,270777.0,711395.0,711915.875,711938.4375,711801.5,711828.1875,712174.0625,712526.875,0.0
1771964115.6459248,270706.1875,711221.625,711742.8125,711765.5625,711628.8125,711655.25,712001.25,712353.625,0.0
1771964115.648444,270770.03125,711091.8125,711612.875,711635.125,711498.4375,711525.375,711871.25,712223.4375,0.0
1771964115.6504009,270851.375,711246.5,711767.1875,711789.8125,711652.75,711680.125,712025.6875,712378.5,0.0
1771964115.6504183,270803.1875,711399.625,711920.5,711943.25,711806.0,711833.375,712178.8125,712531.875,0.0
1771964115.6530082,270713.4375,711263.9375,711784.875,711807.6875,711670.4375,711697.75,712042.9375,712395.875,0.0
1771964115.655512,270758.21875,711093.8125,711615.0,711637.8125,711500.6875,711527.9375,711873.4375,712226.0625,0.0
1771964115.6910975,270852.71875,711210.8125,711732.125,711754.9375,711618.25,711644.875,711990.1875,712343.25,0.0
1771964115.6911714,270824.375,711399.625,711921.125,711943.4375,711806.4375,711833.4375,712179.125,712532.1875,0.0
1771964115.6983905,270719.34375,711306.375,711828.0,711850.6875,711713.4375,711740.1875,712086.125,712438.8125,0.0
1771964115.69843,270736.6875,711106.6875,711628.375,711651.25,711513.5625,711540.8125,711886.3125,712239.0625,0.0
1771964115.6984487,270843.25,711175.25,711696.8125,711719.75,711582.0625,711609.5,711954.9375,712307.5,0.0
1771964115.7017956,270835.46875,711381.0625,711902.3125,711925.25,711787.875,711814.75,712160.75,712513.375,0.0
1771964115.701834,270727.75,711344.125,711865.75,711888.1875,711751.125,711777.5,712123.75,712476.5625,0.0
1771964115.701852,270720.125,711128.9375,711650.4375,711672.8125,711535.875,711562.5625,711908.75,712261.25,0.0
1771964115.7043037,270827.4375,711142.6875,711664.0,711686.8125,711549.5625,711576.6875,711922.4375,712275.0,0.0
1771964115.7043378,270851.65625,711356.125,711877.0625,711900.0625,711762.8125,711789.75,712135.5625,712488.0625,0.0
1771964115.7067692,270748.84375,711376.3125,711897.375,711920.0625,711783.1875,711809.75,712155.9375,712508.5,0.0
1771964115.7096088,270714.78125,711162.5625,711683.75,711706.3125,711569.3125,711596.25,711941.875,712294.625,0.0
1771964115.7121563,270812.125,711118.0,711639.25,711661.625,711525.1875,711551.8125,711897.3125,712250.0625,0.0
1771964115.7145183,270861.65625,711323.5625,711844.625,711867.4375,711730.5625,711757.0625,712102.75,712455.625,0.0
1771964115.7170208,270774.78125,711395.375,711916.25,711939.375,711802.625,711829.125,712174.875,712527.4375,0.0
1771964115.7207878,270716.65625,711199.8125,711720.625,711743.6875,711606.8125,711633.625,711978.9375,712331.8125,0.0
1771964115.73441,270798.375,711105.9375,711627.125,711649.6875,711512.9375,711539.75,711885.1875,712238.0,0.0
1771964115.734456,270865.0625,711289.5,711810.5,711833.25,711696.8125,711723.0,712068.75,712421.75,0.0
1771964115.7894795,270794.71875,711412.0,711933.125,711956.125,711819.5,711845.875,712191.25,712544.6875,0.0
1771964115.7895248,270704.84375,711240.125,711761.8125,711784.25,711647.75,711674.125,712019.5,712372.6875,0.0
1771964115.7895348,270767.96875,711096.4375,711617.6875,711640.125,711503.5625,711530.1875,711875.3125,712228.4375,0.0
1771964115.789542,270851.03125,711244.4375,711765.3125,711788.0,711651.5625,711677.6875,712023.4375,712375.9375,0.0
1771964115.7895508,270810.875,711408.75,711930.5625,711953.0,711816.25,711842.8125,712189.0,712541.3125,0.0
1771964115.8135097,270716.375,711282.0625,711803.875,711826.5,711689.5625,711716.5,712061.875,712414.5625,0.0
1771964115.8157725,270753.5,711100.125,711621.4375,711644.4375,711507.8125,711534.375,711879.6875,712232.1875,0.0
1771964115.8158476,270848.4375,711206.4375,711727.6875,711750.3125,711613.6875,711640.5,711986.0625,712338.625,0.0
1771964115.8158703,270827.78125,711400.875,711921.9375,711944.5625,711807.6875,711834.6875,712180.0625,712532.9375,0.0
1771964115.817888,270731.59375,711320.8125,711841.5,711864.3125,711727.25,711754.125,712099.6875,712452.75,0.0
1771964115.8179035,270737.3125,711113.875,711635.125,711657.9375,711521.0625,711547.8125,711893.0625,712246.0625,0.0
1771964115.8213031,270845.75,711171.8125,711693.375,711716.0625,711579.375,711606.0625,711951.1875,712303.8125,0.0
1771964115.8213573,270866.6875,711383.5625,711905.125,711928.0625,711791.0625,711817.8125,712163.25,712515.875,0.0
1771964115.8222325,270766.0,711356.9375,711878.3125,711901.3125,711764.0,711791.0625,712136.375,712489.4375,0.0
1771964115.8230927,270749.90625,711142.0625,711663.5625,711686.1875,711549.125,711576.5,711921.6875,712274.5,0.0
1771964115.8246255,270844.9375,711143.3125,711664.1875,711687.25,711550.125,711577.125,711922.5,712275.375,0.0
1771964115.8259895,270875.625,711354.25,711875.3125,711898.0625,711761.1875,711787.9375,712133.5625,712486.5,0.0
1771964115.8282728,270780.03125,711384.25,711905.6875,711928.375,711791.4375,711818.3125,712164.0,712516.6875,0.0
1771964115.8302925,270738.375,711174.6875,711695.9375,711719.0,711582.125,711608.75,711954.125,712306.6875,0.0
1771964115.8532596,270836.375,711125.0625,711646.125,711669.0,711532.3125,711558.875,711904.375,712256.9375,0.0
1771964115.8760448,270897.4375,711325.4375,711846.5625,711869.9375,711732.625,711759.5,712105.0,712457.875,0.0
1771964115.8768404,270807.59375,711405.875,711927.4375,711950.0625,711813.125,711839.875,712185.25,712538.3125,0.0
1771964115.8787208,270735.25,711212.0625,711733.25,711756.3125,711619.0625,711645.875,711991.4375,712344.4375,0.0
1771964115.8804595,270815.09375,711106.8125,711628.1875,711650.9375,711513.875,711540.625,711886.5625,712239.5625,0.0
1771964115.880476,270887.6875,711284.0625,711805.4375,711828.375,711691.1875,711717.6875,712063.5,712416.8125,0.0
1771964115.8834467,270821.875,711417.6875,711939.0625,711962.125,711824.9375,711851.5,712197.125,712550.0625,0.0
1771964115.8835213,270737.21875,711255.6875,711777.125,711799.9375,711662.75,711689.5,712035.25,712387.75,0.0
1771964115.8835447,270791.03125,711105.25,711626.5,711649.4375,711512.375,711539.125,711884.5625,712237.3125,0.0
1771964115.8835645,270879.03125,711246.375,711767.5625,711790.25,711653.5,711679.875,712025.6875,712378.625,0.0
1771964115.8848584,270843.15625,711418.0,711938.9375,711962.0,711824.9375,711851.4375,712197.3125,712550.5,0.0
1771964115.8860035,270754.46875,711298.4375,711819.3125,711842.3125,711705.4375,711732.0,712077.8125,712430.625,0.0
1771964115.8890388,270777.90625,711111.3125,711632.75,711655.5,711518.3125,711545.3125,711890.5,712243.3125,0.0
1771964115.8921747,270870.15625,711209.625,711730.375,711753.5,711616.375,711643.125,711988.5625,712341.875,0.0
1771964115.8942924,270857.65625,711410.3125,711931.1875,711954.3125,711817.1875,711844.0,712189.1875,712542.6875,0.0
1771964115.894342,270752.9375,711343.3125,711864.1875,711887.4375,711750.5625,711776.9375,712122.4375,712475.6875,0.0
1771964115.8960965,270757.78125,711135.625,711656.4375,711679.5,711542.4375,711569.3125,711914.625,712267.3125,0.0
1771964115.8993528,270859.625,711180.5,711701.9375,711724.9375,711587.6875,711614.5625,711959.875,712312.875,0.0
1771964115.902239,270866.40625,711391.0625,711912.75,711935.8125,711798.5625,711825.25,712170.5,712523.875,0.0
1771964115.9042618,270766.71875,711375.0625,711896.5,711919.125,711782.3125,711808.9375,712154.5,712507.5625,0.0
1771964115.9042783,270750.53125,711162.1875,711683.4375,711706.25,711569.25,711595.875,711941.8125,712294.5,0.0
1771964115.9042864,270853.625,711154.75,711676.0625,711699.1875,711562.0,711588.5,711933.75,712287.25,0.0
1771964115.9105537,270888.125,711365.875,711887.0,711910.0625,711773.0,711799.5625,712144.9375,712498.1875,0.0
1771964115.91057,270792.125,711404.5,711925.5625,711948.25,711811.875,711838.25,712183.75,712537.0,0.0
1771964115.9105773,270745.875,711197.3125,711718.375,711741.1875,711604.5625,711631.125,711976.6875,712330.0,0.0
1771964115.9105833,270841.09375,711134.9375,711656.125,711679.125,711542.0625,711568.8125,711914.625,712267.625,0.0
1771964115.9141545,270901.90625,711332.3125,711853.375,711876.375,711739.3125,711766.3125,712111.75,712464.75,0.0
1771964115.9141693,270827.96875,711427.0,711948.0,711971.375,711833.6875,711860.6875,712206.125,712559.3125,0.0
1771964115.9449892,270765.375,711242.9375,711764.0625,711787.125,711650.0,711676.8125,712022.125,712375.3125,0.0
1771964115.9482205,270843.53125,711125.1875,711646.5625,711669.1875,711532.5,711559.25,711904.5,712257.875,0.0
1771964115.9482937,270931.5,711293.875,711814.9375,711837.9375,711701.0625,711727.6875,712073.4375,712426.5625,0.0
1771964115.9484265,270879.09375,711433.1875,711954.6875,711977.6875,711840.4375,711867.4375,712213.0,712566.25,0.0
1771964115.950569,270793.46875,711280.4375,711801.875,711824.9375,711687.875,711714.6875,712060.1875,712413.3125,0.0
1771964115.9506204,270851.75,711123.375,711644.4375,711667.4375,711530.625,711557.25,711903.1875,712256.0,0.0
1771964115.9506311,270946.96875,711252.0625,711773.375,711796.3125,711659.375,711686.1875,712031.8125,712384.9375,0.0
1771964115.9551637,270920.84375,711432.625,711953.8125,711976.9375,711839.6875,711866.4375,712212.0625,712565.4375,0.0
1771964115.955237,270823.6875,711322.9375,711844.0,711867.125,711730.375,711756.75,712102.5625,712455.4375,0.0
1771964115.9552562,270856.40625,711131.125,711652.1875,711675.4375,711538.5,711565.5,711911.0625,712263.6875,0.0
1771964115.955272,270965.28125,711217.25,711738.25,711761.5625,711624.875,711651.6875,711996.875,712349.75,0.0
1771964115.9886897,270970.21875,711421.8125,711942.8125,711965.9375,711828.875,711855.8125,712201.25,712554.4375,0.0
1771964115.990421,270883.21875,711360.9375,711881.75,711904.875,711768.0,711795.0,712140.5625,712493.4375,0.0
1771964115.99044,270881.59375,711148.5,711669.8125,711692.8125,711556.125,711582.8125,711928.5,712281.1875,0.0
1771964115.9904497,270986.125,711186.75,711708.4375,711731.25,711594.9375,711621.3125,711966.9375,712319.75,0.0
1771964115.9933822,271004.625,711398.5625,711920.1875,711943.25,711806.8125,711833.1875,712179.125,712531.5625,0.0
1771964115.993456,270907.96875,711393.75,711915.25,711937.875,711801.5,711827.8125,712173.5625,712526.375,0.0
1771964115.994774,270891.4375,711180.9375,711702.4375,711725.25,711588.9375,711615.125,711960.5,712313.5,0.0
1771964115.996502,270978.875,711156.625,711678.0625,711701.3125,711564.625,711591.0,711936.25,712289.5,0.0
1771964116.027222,271010.4375,711362.625,711883.6875,711906.9375,711770.5,711796.25,712142.0625,712495.3125,0.0
1771964116.027297,270916.375,711413.5625,711934.625,711958.0,711821.1875,711847.5,712193.3125,712546.625,0.0
1771964116.027324,270880.0,711214.375,711735.25,711758.5,711621.8125,711647.9375,711994.125,712347.1875,0.0
1771964116.0360353,270994.96875,711142.9375,711664.4375,711687.25,711550.375,711576.6875,711922.6875,712275.625,0.0
1771964116.036128,271054.34375,711337.0,711858.5,711881.4375,711744.0625,711770.5625,712116.5,712469.375,0.0
1771964116.0385585,270981.9375,711439.625,711960.875,711983.75,711846.5625,711873.5,712219.0625,712572.1875,0.0
1771964116.0394187,270909.0625,711261.125,711782.6875,711805.4375,711668.375,711695.375,712040.9375,712393.6875,0.0
1771964116.0414028,270989.78125,711136.6875,711658.1875,711681.1875,711544.3125,711570.9375,711916.875,712269.5625,0.0
1771964116.042595,271071.5,711304.4375,711825.875,711848.8125,711711.5,711738.25,712084.25,712436.875,0.0
1771964116.0435066,271002.75,711453.3125,711974.875,711997.9375,711860.6875,711887.375,712233.125,712585.8125,0.0
1771964116.0448563,270909.25,711310.0,711831.5,711854.5625,711717.6875,711744.1875,712089.625,712442.875,0.0
1771964116.0456412,270955.625,711138.9375,711660.4375,711683.5,711546.375,711573.0625,711918.3125,712271.5625,0.0
1771964116.0469527,271049.96875,711260.8125,711782.5,711805.375,711668.375,711694.875,712040.625,712393.375,0.0
1771964116.0834408,271024.40625,711448.3125,711969.8125,711992.5625,711856.25,711882.5,712228.375,712581.3125,0.0
1771964116.0835662,270937.21875,711360.0625,711881.75,711904.5,711767.75,711794.5625,712140.375,712493.0,0.0
1771964116.0836031,270983.875,711184.0625,711705.625,711728.1875,711591.6875,711618.25,711963.875,712316.9375,0.0
1771964116.0836232,271036.5625,711257.1875,711778.625,711801.4375,711664.625,711690.9375,712036.9375,712389.75,0.0
1771964116.0857942,271040.65625,711451.875,711973.625,711996.375,711859.3125,711885.5625,712231.75,712584.75,0.0
1771964116.0858696,270957.59375,711385.3125,711907.1875,711929.75,711793.0625,711818.9375,712165.3125,712518.5,0.0
1771964116.0905364,270944.1875,711161.8125,711683.875,711706.6875,711569.5,711595.5625,711941.8125,712294.6875,0.0
1771964116.0905886,271044.96875,711183.4375,711705.0625,711728.125,711590.6875,711617.0625,711963.4375,712316.0625,0.0
1771964116.0923543,271059.96875,711397.125,711918.5,711941.625,711803.9375,711831.0625,712176.75,712529.6875,0.0
1771964116.0937707,270961.90625,711408.6875,711930.0,711952.625,711815.5,711842.375,712187.875,712541.0,0.0
1771964116.0955489,270920.40625,711194.4375,711716.0625,711738.25,711601.625,711628.375,711974.0,712327.0625,0.0
1771964116.0955985,271024.03125,711161.5625,711682.875,711705.3125,711568.375,711595.0625,711941.0,712294.0625,0.0
1771964116.099016,271073.3125,711368.625,711890.25,711912.5625,711775.75,711802.3125,712148.5,712500.9375,0.0
1771964116.130966,270991.40625,711430.375,711952.1875,711974.875,711838.125,711864.5,712210.625,712563.25,0.0
1771964116.132984,270918.625,711232.375,711754.25,711776.5625,711640.3125,711666.8125,712012.25,712365.25,0.0
1771964116.133001,271000.53125,711147.3125,711669.0,711691.3125,711554.75,711581.5,711927.0625,712280.0625,0.0
1771964116.1330693,271088.21875,711343.75,711865.4375,711888.0625,711751.125,711777.8125,712123.3125,712476.4375,0.0
1771964116.1330771,271046.84375,711470.625,711992.0625,712015.125,711877.875,711904.5,712250.0625,712603.625,0.0
1771964116.1569772,270944.5625,711297.375,711818.875,711841.5,711704.5,711731.1875,712076.25,712429.625,0.0
1771964116.1570477,271002.5,711151.6875,711673.4375,711695.75,711559.125,711585.875,711930.75,712284.25,0.0
1771964116.1745553,271117.375,711323.625,711845.3125,711868.0625,711731.0625,711757.625,712102.9375,712456.0,0.0
1771964116.17574,271051.75,711507.8125,712029.4375,712052.25,711915.3125,711941.625,712287.1875,712640.25,0.0
1771964116.1768577,270927.84375,711359.3125,711881.25,711903.625,711766.6875,711793.3125,712138.75,712491.8125,0.0
1771964116.178143,270967.34375,711147.25,711669.125,711691.5625,711554.5,711581.125,711926.5,712279.4375,0.0
1771964116.179921,271091.90625,711251.9375,711773.4375,711796.0,711658.9375,711685.75,712031.1875,712384.0,0.0
1771964116.1819322,271055.25,711437.9375,711959.25,711981.625,711844.625,711871.25,712216.8125,712570.0,0.0
1771964116.1820064,270954.65625,711354.0625,711875.375,711897.5625,711760.375,711787.3125,712132.6875,712486.1875,0.0
1771964116.1838248,271003.125,711157.8125,711679.6875,711701.8125,711564.5,711591.75,711937.25,712290.25,0.0
1771964116.1845567,271074.28125,711227.5625,711748.9375,711771.6875,711634.3125,711661.1875,712006.625,712359.8125,0.0
1771964116.1856227,271071.6875,711437.3125,711958.375,711980.875,711843.5625,711870.1875,712216.125,712569.1875,0.0
1771964116.187215,270973.96875,711402.25,711923.8125,711946.125,711809.125,711835.5625,712181.75,712534.6875,0.0
1771964116.188564,270970.125,711194.375,711715.6875,711738.5625,711601.25,711627.875,711973.8125,712326.6875,0.0
1771964116.189937,271078.03125,711212.25,711733.5625,711756.3125,711619.3125,711645.875,711991.25,712345.0625,0.0
1771964116.1910217,271126.75,711433.0,711953.9375,711976.9375,711839.8125,711866.25,712212.375,712565.25,0.0
1771964116.19186,271024.46875,711457.0625,711978.3125,712001.0625,711863.75,711890.5625,712236.875,712589.3125,0.0
1771964116.2395308,270970.21875,711248.125,711769.8125,711792.4375,711655.0625,711682.375,712027.9375,712380.875,0.0
1771964116.2395964,271078.65625,711209.8125,711731.8125,711754.125,711617.1875,711644.4375,711989.75,712342.8125,0.0
1771964116.239617,271154.21875,711429.625,711951.1875,711973.625,711836.75,711863.5625,712209.3125,712562.375,0.0
1771964116.2396328,271010.34375,711500.125,712021.3125,712044.25,711906.75,711933.5,712279.3125,712632.1875,0.0
1771964116.2396472,270922.8125,711296.8125,711817.875,711841.0625,711703.375,711730.1875,712075.75,712429.0625,0.0
1771964116.23966,271049.78125,711183.375,711704.8125,711727.3125,711590.25,711617.1875,711963.0,712315.8125,0.0
1771964116.2396736,271135.96875,711380.875,711902.5,711925.0625,711787.875,711814.75,712160.5625,712513.3125,0.0
1771964116.240608,270994.1875,711499.6875,712021.1875,712044.0,711906.9375,711933.375,712279.6875,712632.3125,0.0
1771964116.2457976,270886.78125,711318.9375,711840.25,711862.75,711726.25,711752.5625,712098.25,712451.4375,0.0
1771964116.245884,270973.53125,711174.6875,711695.9375,711718.5625,711581.4375,711608.3125,711953.875,712307.0625,0.0
1771964116.2469995,271108.0,711328.0,711849.375,711872.5,711734.9375,711761.75,712107.5625,712460.8125,0.0
1771964116.2487648,271046.125,711492.1875,712013.75,712036.875,711899.5,711926.25,712272.1875,712625.125,0.0
1771964116.2494655,270951.875,711367.0,711888.6875,711911.4375,711774.375,711801.0,712147.0,712499.5,0.0
1771964116.2509048,270984.78125,711185.4375,711706.75,711729.4375,711592.3125,711619.3125,711965.0625,712317.75,0.0
1771964116.2525923,271069.09375,711292.6875,711814.0625,711836.9375,711699.5,711726.3125,712072.1875,712425.0625,0.0
1771964116.2542713,271024.84375,711489.25,712010.625,712033.5625,711896.0625,711923.0625,712268.6875,712621.8125,0.0
1771964116.2542877,270905.3125,711413.25,711934.625,711957.8125,711820.3125,711847.0625,712192.6875,712545.8125,0.0
1771964116.2573361,270974.21875,711215.625,711737.5,711760.5625,711623.1875,711649.8125,711995.625,712348.4375,0.0
1771964116.2882407,271061.5,711269.1875,711790.6875,711813.75,711676.5625,711703.375,712048.75,712402.0,0.0
1771964116.2883084,271046.03125,711469.1875,711990.6875,712013.875,711876.25,711903.25,712248.9375,712602.0625,0.0
1771964116.2883286,270916.9375,711445.125,711966.6875,711989.375,711852.0625,711879.25,712224.6875,712577.5625,0.0
1771964116.2883525,270884.5625,711232.125,711753.5,711775.9375,711638.6875,711666.0,712011.375,712364.1875,0.0
1771964116.2898958,271018.3125,711233.25,711754.9375,711777.1875,711640.0625,711667.125,712012.5,712365.5,0.0
1771964116.2909744,271070.15625,711447.3125,711968.5625,711991.3125,711854.375,711881.4375,712226.6875,712579.5625,0.0
1771964116.2920814,270950.28125,711479.0625,712000.25,712023.0,711886.4375,711913.125,712258.5625,712611.75,0.0
1771964116.293475,270882.0625,711255.625,711777.0,711799.75,711662.75,711689.5625,712035.4375,712388.6875,0.0
1771964116.2957685,270992.125,711193.125,711714.625,711737.4375,711600.5625,711627.1875,711972.75,712326.0,0.0
1771964116.2958157,271038.96875,711390.875,711912.5,711935.125,711798.25,711824.6875,712170.75,712523.5625,0.0
1771964116.2987256,270912.53125,711494.75,712016.125,712038.8125,711902.0,711928.5625,712274.5,712627.375,0.0
1771964116.3318737,270813.5625,711303.8125,711825.5625,711848.375,711711.3125,711738.0625,712083.5,712436.5,0.0
1771964116.3320396,270894.5625,711180.3125,711701.75,711724.5625,711587.6875,711614.3125,711960.0625,712312.5,0.0
1771964116.3320725,270995.0625,711336.8125,711858.0625,711880.625,711743.9375,711770.5,712116.125,712468.875,0.0
1771964116.334408,270909.5,711473.125,711994.5625,712017.375,711880.3125,711907.125,712252.5,712605.5,0.0
1771964116.3344774,270816.15625,711314.4375,711836.0625,711858.6875,711721.875,711748.875,712094.0625,712447.3125,0.0
1771964116.3357549,270836.5625,711161.3125,711682.625,711705.625,711568.1875,711595.375,711940.9375,712293.6875,0.0
1771964116.3410852,270926.59375,711298.625,711820.3125,711842.9375,711705.4375,711732.9375,712078.4375,712431.5625,0.0
1771964116.3423774,270916.75,711471.0,711992.5,712015.1875,711877.5,711905.125,712250.6875,712603.875,0.0
1771964116.343639,270812.75,711360.8125,711882.5,711905.625,711768.1875,711795.375,712140.625,712493.875,0.0
1771964116.3443935,270850.9375,711184.375,711705.875,711728.8125,711591.75,711618.75,711964.0625,712317.3125,0.0
1771964116.346152,270963.59375,711267.5625,711788.9375,711811.75,711674.9375,711702.0,712047.3125,712400.125,0.0
1771964116.3847551,270978.625,711454.1875,711975.4375,711998.6875,711861.3125,711888.625,712234.0,712586.9375,0.0
1771964116.3848083,270840.9375,711388.625,711910.25,711933.5,711796.0625,711823.3125,712168.25,712521.625,0.0
1771964116.3848276,270825.1875,711182.125,711703.625,711726.0625,711589.375,711616.375,711961.5,712314.625,0.0
1771964116.3848436,270933.1875,711221.625,711743.125,711765.5,711629.0,711656.0,712001.25,712354.3125,0.0
1771964116.3867757,270960.5625,711461.9375,711983.5625,712006.375,711869.375,711896.3125,712242.1875,712594.9375,0.0
1771964116.386791,270860.59375,711455.6875,711977.3125,712000.0,711862.875,711889.75,712235.625,712588.5625,0.0
1771964116.3883908,270802.125,711206.0,711727.3125,711750.1875,711613.0625,711640.25,711985.6875,712338.9375,0.0
1771964116.39123,270857.8125,711158.125,711679.875,711702.0,711565.5,711592.5,711938.0625,712290.9375,0.0
1771964116.3925056,270903.0625,711368.25,711889.875,711912.5625,711775.9375,711802.625,712148.6875,712501.125,0.0
1771964116.3931153,270835.28125,711435.4375,711956.625,711980.0625,711842.8125,711869.5625,712215.375,712568.125,0.0
1771964116.3956516,270779.25,711247.1875,711768.6875,711791.25,711654.0,711681.4375,712027.0,712379.75,0.0
1771964116.3957248,270760.65625,711151.25,711673.25,711695.5,711558.625,711585.9375,711931.0,712284.25,0.0
1771964116.3974612,270802.3125,711325.0,711846.6875,711869.0,711732.125,711759.125,712104.8125,712457.875,0.0
1771964116.431933,270828.3125,711445.25,711966.8125,711989.375,711852.5,711879.6875,712225.3125,712578.375,0.0
1771964116.4320023,270814.90625,711288.75,711810.625,711833.1875,711696.5625,711723.625,712068.9375,712421.9375,0.0
1771964116.4320247,270889.03125,711184.5,711706.5,711728.9375,711592.25,711619.0625,711964.5,712317.125,0.0
1771964116.4320471,270977.0,711341.6875,711863.875,711886.125,711749.125,711776.375,712121.9375,712474.5625,0.0
1771964116.4320655,270893.6875,711450.5,711972.3125,711994.8125,711857.5625,711884.6875,712230.5,712583.3125,0.0
1771964116.4346654,270765.375,711315.625,711837.1875,711860.0,711722.5625,711749.75,712095.125,712448.125,0.0
1771964116.4361963,270788.09375,711162.1875,711683.6875,711706.375,711569.5,711596.5,711942.0,712294.8125,0.0
1771964116.4384549,270883.9375,711277.9375,711799.0,711821.8125,711685.125,711712.1875,712057.6875,712410.375,0.0
1771964116.438532,270866.15625,711444.5,711966.0625,711988.5625,711851.75,711878.6875,712224.125,712577.6875,0.0
1771964116.4399996,270738.28125,711337.6875,711859.3125,711882.0,711744.6875,711771.75,712117.6875,712470.8125,0.0
1771964116.441512,270759.5625,711153.3125,711674.9375,711698.0,711560.5,711587.5625,711933.3125,712286.125,0.0
1771964116.442038,270870.25,711237.0,711758.625,711781.5,711644.375,711671.375,712017.0,712370.0625,0.0
1771964116.485503,270839.125,711429.875,711951.625,711974.25,711837.0,711864.0,712209.875,712562.625,0.0
1771964116.4855475,270718.875,711378.25,711899.875,711922.5625,711785.1875,711812.4375,712158.1875,712510.6875,0.0
1771964116.4879344,270709.5,711175.4375,711697.125,711719.5625,711582.8125,711609.75,711955.5,712308.1875,0.0
1771964116.4879537,270819.84375,711210.125,711732.0,711754.4375,711617.8125,711644.5,711990.1875,712343.125,0.0
1771964116.4879625,270810.1875,711420.1875,711941.875,711964.3125,711827.375,711854.0,712200.0,712553.0625,0.0
1771964116.5542953,270668.8125,711417.625,711939.125,711961.9375,711824.625,711851.0625,712197.25,712549.875,0.0
1771964116.5543337,270591.40625,711210.75,711732.3125,711754.9375,711618.0625,711644.5,711990.5625,712343.0,0.0
1771964116.5556636,270705.125,711160.5,711682.1875,711704.875,711567.9375,711594.75,711940.4375,712293.1875,0.0
1771964116.5568693,270851.5625,711368.5,711890.0625,711912.5,711775.9375,711802.3125,712148.3125,712501.3125,0.0
1771964116.5581555,270703.25,711428.1875,711949.4375,711972.0,711835.3125,711861.6875,712207.625,712560.9375,0.0
1771964116.5618975,270596.84375,711223.9375,711745.5,711768.1875,711631.125,711658.0,712003.75,712356.9375,0.0
1771964116.5631008,270660.5,711136.25,711657.6875,711680.5,711543.4375,711570.4375,711916.0625,712269.3125,0.0
1771964116.5654256,270743.21875,711321.0625,711842.125,711865.1875,711728.125,711754.75,712101.0625,712453.6875,0.0
1771964116.5654457,270665.6875,711423.625,711944.3125,711967.4375,711830.0625,711856.9375,712202.6875,712555.9375,0.0
1771964116.5669436,270542.84375,711238.4375,711759.6875,711783.125,711645.25,711672.25,712017.875,712371.3125,0.0
1771964116.571875,270594.875,711116.25,711637.625,711660.875,711523.5,711550.5,711896.1875,712249.0,0.0
1771964116.571904,270728.0,711280.9375,711802.75,711825.5625,711688.4375,711715.4375,712061.375,712413.875,0.0
1771964116.5731232,270625.0,711422.875,711944.75,711967.4375,711830.5,711857.75,712203.125,712555.875,0.0
1771964116.5743723,270480.8125,711287.4375,711808.5625,711831.3125,711694.625,711721.875,712067.25,712419.75,0.0
1771964116.575871,270533.28125,711120.4375,711641.6875,711664.3125,711527.875,711554.6875,711900.25,712253.0625,0.0
1771964116.5768666,270648.25,711242.75,711764.4375,711786.6875,711650.4375,711677.25,712022.8125,712375.6875,0.0
1771964116.5781183,270598.71875,711448.75,711970.3125,711992.75,711856.25,711882.8125,712228.6875,712581.3125,0.0
1771964116.5793476,270425.1875,711335.5625,711856.875,711879.875,711742.625,711769.5,712115.25,712468.0625,0.0
1771964116.5806997,270349.1875,711108.5625,711629.875,711652.875,711515.625,711542.625,711888.4375,712240.9375,0.0
1771964116.5818756,270508.0625,711221.5625,711743.0625,711766.0625,711628.875,711656.0,712001.8125,712354.4375,0.0
1771964116.5833027,270597.5625,711451.0625,711972.5,711995.5625,711858.1875,711885.6875,712231.125,712584.4375,0.0
1771964116.5843816,270446.03125,711361.375,711882.5,711905.3125,711768.625,711795.5625,712141.1875,712494.25,0.0
1771964116.589625,270390.21875,711095.3125,711616.5625,711639.1875,711502.4375,711529.4375,711874.8125,712227.625,0.0
1771964116.590814,270475.625,711086.75,711607.9375,711630.25,711493.4375,711520.8125,711866.25,712219.0625,0.0
1771964116.591872,270557.875,711323.0,711844.5625,711866.8125,711729.9375,711757.25,712102.625,712455.625,0.0
1771964116.631873,270364.75,711329.625,711850.8125,711873.125,711736.25,711764.0,712109.0625,712461.875,0.0
1771964116.631916,270242.4375,711113.875,711635.25,711657.9375,711521.0,711548.25,711893.5,712246.6875,0.0
1771964116.6319292,270422.40625,711111.9375,711633.625,711656.3125,711519.375,711546.375,711892.0,712245.0625,0.0
1771964116.6319373,270495.90625,711305.75,711826.9375,711850.25,711712.6875,711739.6875,712085.6875,712438.75,0.0
1771964116.6319437,270393.28125,711365.6875,711886.8125,711910.25,711773.0,711799.9375,712145.625,712498.4375,0.0
1771964116.6319494,270330.40625,711205.625,711727.5,711750.5,711613.25,711640.3125,711985.625,712338.3125,0.0
1771964116.631955,270414.1875,711157.4375,711679.375,711702.0,711564.75,711591.875,711937.0625,712290.3125,0.0
1771964116.6319606,270471.15625,711318.0,711839.6875,711862.5625,711725.1875,711752.375,712097.9375,712451.0,0.0
1771964116.631966,270348.65625,711370.5625,711892.25,711915.1875,711778.0,711805.125,712150.8125,712503.5625,0.0
1771964116.631971,270251.125,711205.25,711726.6875,711749.5625,711612.3125,711639.625,711985.25,712337.875,0.0
1771964116.6342409,270323.53125,711089.3125,711610.75,711633.4375,711496.5,711523.125,711869.125,712221.75,0.0
1771964116.6342604,270328.53125,711213.125,711734.625,711757.625,711620.6875,711647.125,711992.875,712346.0,0.0
1771964116.6342683,270323.53125,711367.8125,711889.3125,711912.6875,711775.0,711802.125,712147.5625,712500.875,0.0
1771964116.6342745,270254.0625,711234.6875,711756.3125,711779.1875,711641.75,711668.875,712014.5,712367.9375,0.0
1771964116.635631,270268.375,711066.125,711587.9375,711610.5625,711473.3125,711500.5,711846.125,712199.125,0.0
1771964116.63717,270383.53125,711194.0,711715.6875,711738.6875,711601.375,711628.4375,711974.4375,712327.0,0.0
1771964116.6394055,270320.3125,711366.75,711888.4375,711911.75,711774.1875,711801.25,712147.0625,712499.625,0.0
1771964116.6416683,270152.40625,711261.5,711783.375,711806.4375,711668.9375,711695.9375,712041.75,712394.5,0.0
1771964116.6416955,270204.53125,711096.375,711618.3125,711641.25,711504.0,711531.0,711876.375,712229.625,0.0
1771964116.6431205,270349.28125,711192.5625,711714.25,711737.125,711599.9375,711627.0,711972.5625,712325.625,0.0
1771964116.6733534,270350.875,711404.5,711925.625,711949.0625,711811.5625,711838.375,712184.375,712537.1875,0.0
1771964116.6772237,270140.875,711339.9375,711860.8125,711884.0625,711746.625,711773.75,712119.25,712472.375,0.0
1771964116.6772437,270077.9375,711085.75,711607.25,711629.9375,711492.625,711519.625,711865.0,712218.0625,0.0
1771964116.6772501,270314.78125,711108.4375,711630.3125,711652.875,711515.4375,711542.875,711888.1875,712240.5,0.0
1771964116.677256,270314.6875,711311.375,711833.0,711855.4375,711718.375,711745.625,712090.9375,712443.8125,0.0
1771964116.6772616,270193.1875,711363.625,711884.6875,711907.8125,711770.6875,711797.6875,712143.25,712496.3125,0.0
1771964116.6772668,270159.90625,711163.3125,711684.9375,711707.625,711570.3125,711597.9375,711943.0,712295.9375,0.0
1771964116.679391,270261.125,711089.9375,711611.4375,711634.0,711496.75,711524.375,711869.6875,712222.5625,0.0
1771964116.6794398,270299.03125,711270.0,711791.3125,711814.3125,711676.875,711704.1875,712049.375,712402.875,0.0
1771964116.680725,270268.09375,711367.1875,711888.6875,711911.4375,711774.1875,711801.5,712146.375,712500.0625,0.0
1771964116.7167487,270214.375,711215.0,711736.25,711759.3125,711622.0625,711649.375,711994.3125,712348.0,0.0
1771964116.7167933,270252.0,711150.125,711671.625,711694.875,711557.0625,711584.4375,711929.5625,712282.875,0.0
1771964116.7217295,270419.1875,711309.5,711830.4375,711853.625,711716.25,711743.75,712088.6875,712442.125,0.0
1771964116.7217605,270284.5625,711376.875,711898.0,711920.6875,711784.0,711811.25,712156.0,712509.625,0.0
1771964116.7217696,270162.25,711254.0625,711775.5,711798.25,711661.1875,711688.6875,712033.0625,712386.6875,0.0
1771964116.7231371,270222.84375,711137.4375,711659.0,711681.625,711544.5,711571.75,711916.625,712270.0,0.0
1771964116.7243707,270270.78125,711220.75,711742.25,711764.625,711627.625,711655.0625,711999.8125,712353.375,0.0
1771964116.7256236,270334.78125,711400.0,711921.6875,711944.125,711806.8125,711834.25,712179.5625,712532.625,0.0
1771964116.7268944,270317.71875,711333.375,711855.25,711877.4375,711740.375,711767.625,712113.125,712466.0,0.0
1771964116.7281318,270338.625,711183.4375,711705.0,711727.0625,711590.25,711617.5,711963.0625,712315.8125,0.0
1771964116.7306411,270426.4375,711293.6875,711815.1875,711837.8125,711700.875,711728.1875,712073.4375,712426.5625,0.0
1771964116.7318747,270303.3125,711416.1875,711937.625,711960.375,711823.25,711850.6875,712195.625,712548.6875,0.0
1771964116.7732503,270120.65625,711267.0625,711788.5625,711811.25,711674.3125,711701.5,712046.5,712399.5625,0.0
1771964116.773292,270316.75,711147.3125,711668.9375,711691.4375,711554.25,711581.6875,711926.8125,712280.125,0.0
1771964116.7733011,270472.65625,711236.625,711758.0625,711780.625,711643.4375,711670.8125,712016.125,712369.25,0.0
1771964116.7733088,270416.4375,711400.25,711921.3125,711944.3125,711807.0625,711834.3125,712179.625,712532.6875,0.0
1771964116.777951,270362.15625,711387.5,711909.0,711931.875,711794.375,711821.75,712167.1875,712519.8125,0.0
1771964116.7779756,270415.1875,711230.75,711751.8125,711774.6875,711637.625,711664.8125,712010.3125,712363.0,0.0
1771964116.779365,270459.875,711212.3125,711733.5,711756.125,711619.125,711646.125,711991.8125,712344.5625,0.0
1771964116.7820964,270502.34375,711394.375,711915.875,711938.25,711801.5,711828.5,712174.0,712527.0,0.0
1771964116.7831345,270482.3125,711450.6875,711972.5,711995.125,711857.9375,711885.0625,712230.4375,712583.5625,0.0
1771964116.7868955,270399.78125,711283.3125,711805.125,711827.5625,711690.375,711717.3125,712062.75,712415.8125,0.0
1771964116.7891853,270471.9375,711241.75,711763.25,711786.25,711649.0,711676.0,712021.3125,712374.5625,0.0
1771964116.7892072,270536.84375,711390.4375,711911.875,711934.9375,711797.625,711824.6875,712170.3125,712522.9375,0.0
1771964116.7906375,270439.9375,711425.125,711946.625,711969.375,711832.3125,711859.1875,712205.3125,712557.75,0.0
1771964116.7919078,270332.28125,711286.1875,711807.8125,711830.3125,711693.375,711720.375,712066.625,712419.0625,0.0
1771964116.8281,270374.125,711223.0625,711744.3125,711766.9375,711629.75,711656.9375,712002.8125,712355.75,0.0
