timestamps,Fz,C3,Cz,C4,Pz,PO7,Oz,PO8,stim
1772569215.1889932,258137.984375,710870.375,711366.9375,496199.8125,711277.4375,711304.5,285831.96875,712018.875,0.0
1772569215.191965,258134.5,710872.875,711369.125,496150.625,711279.375,711306.8125,285842.625,712020.6875,0.0
1772569215.2057333,258134.140625,710875.25,711371.375,496124.96875,711281.625,711309.6875,285878.03125,712022.8125,0.0
1772569215.2088232,258129.9375,710869.0,711365.375,495918.53125,711275.25,711303.25,285801.5625,712016.9375,0.0
1772569215.2088573,258134.671875,710868.0,711364.6875,495755.53125,711274.1875,711302.375,285738.375,712016.1875,0.0
1772569215.2106676,258132.625,710873.1875,711369.625,495708.59375,711279.75,711307.125,285745.875,712021.1875,0.0
1772569215.2144892,258128.234375,710875.875,711372.3125,495695.03125,711282.25,711310.0,285788.4375,712023.875,0.0
1772569215.2238052,258127.796875,710871.875,711368.25,495526.65625,711278.5,711306.1875,285735.78125,712020.0625,0.0
1772569215.223834,258127.703125,710870.0625,711366.75,495338.1875,711276.8125,711304.6875,285655.125,712018.25,0.0
1772569215.2254639,258122.0625,710871.0,711367.375,495281.6875,711277.625,711305.3125,285645.5625,712019.125,0.0
1772569215.235746,258108.484375,710873.1875,711369.8125,495278.75,711280.3125,711307.8125,285682.75,712021.625,0.0
1772569215.254332,258116.078125,710871.0,711367.4375,495163.84375,711278.0625,711305.5625,285657.375,712019.5625,0.0
1772569215.2543705,258119.65625,710866.625,711363.1875,494959.8125,711273.5,711301.125,285566.875,712014.9375,0.0
1772569215.2543793,258119.203125,710870.0625,711366.9375,494902.15625,711276.625,711304.3125,285558.84375,712018.625,0.0
1772569215.263942,258116.53125,710874.3125,711371.1875,494893.21875,711281.1875,711308.625,285588.34375,712023.0625,0.0
1772569215.2639933,258117.15625,710871.3125,711368.0625,494809.8125,711278.5,711305.5,285576.0,712019.875,0.0
1772569215.2655516,258125.5625,710865.0,711361.625,494595.21875,711272.25,711299.5,285479.09375,712013.4375,0.0
1772569215.2679632,258129.84375,710867.375,711364.25,494526.90625,711274.375,711302.125,285462.09375,712016.0,0.0
1772569215.2707908,258124.84375,710872.5,711369.125,494515.03125,711279.375,711306.6875,285487.40625,712021.1875,0.0
1772569215.273203,258125.5625,710873.5,711370.3125,494467.46875,711280.125,711307.75,285499.5625,712022.25,0.0
1772569215.2756891,258126.8125,710867.5625,711364.25,494253.40625,711274.3125,711302.125,285405.78125,712016.0,0.0
1772569215.2781951,258119.65625,710870.4375,711366.8125,494154.4375,711277.0625,711305.0625,285370.46875,712018.6875,0.0
1772569215.2826452,258113.046875,710872.5625,711369.0,494121.375,711279.125,711307.125,285382.15625,712021.0,0.0
1772569215.2826788,258109.015625,710873.5625,711369.875,494088.8125,711280.375,711307.8125,285405.15625,712021.625,0.0
1772569215.296069,258109.015625,710868.9375,711366.125,493879.15625,711276.0625,711303.625,285320.375,712017.5625,0.0
1772569215.2961006,258119.203125,710871.625,711368.8125,493749.0625,711278.9375,711306.375,285272.8125,712020.3125,0.0
1772569215.3030877,258117.78125,710874.375,711371.0625,493702.21875,711281.375,711308.875,285278.90625,712023.0,0.0
1772569215.3031185,258113.125,710876.8125,711373.6875,493675.75,711284.5,711311.25,285309.125,712025.375,0.0
1772569215.3031266,258121.171875,710871.625,711368.6875,493472.09375,711279.3125,711305.9375,285236.96875,712020.3125,0.0
1772569215.305735,258122.78125,710868.75,711365.6875,493289.96875,711275.75,711303.0625,285168.21875,712017.1875,0.0
1772569215.3094075,258119.65625,710871.6875,711368.5,493228.8125,711278.4375,711305.9375,285176.8125,712019.875,0.0
1772569215.3236682,258116.890625,710877.6875,711374.5,493205.84375,711284.375,711311.6875,285220.875,712026.0,0.0
1772569215.3236976,258109.90625,710871.6875,711368.6875,493021.9375,711278.5,711305.5625,285160.53125,712020.125,0.0
1772569215.3276124,258115.09375,710866.125,711363.375,492804.21875,711273.125,711300.0625,285066.90625,712014.5,0.0
1772569215.3276646,258111.875,710867.375,711365.125,492722.59375,711274.625,711301.5,285053.5,712016.0,0.0
1772569215.3425024,258113.9375,710873.6875,711371.0625,492697.65625,711280.8125,711308.0,285091.40625,712022.25,0.0
1772569215.3425367,258113.390625,710872.875,711369.875,492555.40625,711279.75,711306.6875,285064.5,712020.9375,0.0
1772569215.3458817,258114.296875,710867.125,711364.6875,492312.40625,711274.375,711301.1875,284967.84375,712015.5625,0.0
1772569215.3459315,258111.34375,710867.875,711365.0625,492214.21875,711274.625,711302.0,284951.75,712016.125,0.0
1772569215.3459425,258104.28125,710870.5625,711367.625,492170.875,711277.625,711304.875,284976.34375,712018.8125,0.0
1772569215.3481889,258104.015625,710873.3125,711370.5625,492067.25,711280.1875,711307.5625,284969.8125,712021.8125,0.0
1772569215.35181,258103.03125,710869.5625,711367.0,491816.90625,711276.4375,711303.5625,284865.84375,712017.8125,0.0
1772569215.363062,258106.875,710874.125,711371.1875,491708.71875,711280.625,711308.1875,284843.03125,712022.125,0.0
1772569215.366252,258109.734375,710877.4375,711374.3125,491659.8125,711283.75,711310.875,284871.75,712025.5,0.0
1772569215.366286,258106.15625,710876.625,711374.0,491578.0,711283.25,711310.625,284887.21875,712025.0625,0.0
1772569215.3731709,258111.078125,710872.5625,711370.5625,491330.4375,711279.3125,711306.75,284800.03125,712021.1875,0.0
1772569215.3759296,258116.4375,710874.375,711372.3125,491191.0625,711281.5625,711308.6875,284765.34375,712022.8125,0.0
1772569215.377983,258111.609375,710878.875,711377.0,491131.40625,711286.1875,711313.5625,284782.34375,712027.625,0.0
1772569215.3819203,258103.109375,710881.4375,711379.4375,491072.21875,711288.6875,711315.5,284804.875,712030.0625,0.0
1772569215.3960252,258103.65625,710874.125,711372.4375,490829.21875,711281.0625,711308.625,284710.53125,712023.0625,0.0
1772569215.3960507,258101.6875,710872.0625,711370.3125,490650.125,711278.5,711306.1875,284639.71875,712020.75,0.0
1772569215.3979235,258097.65625,710874.125,711372.125,490582.28125,711280.3125,711308.1875,284644.21875,712022.75,0.0
1772569215.4004836,258098.109375,710877.875,711375.9375,490543.3125,711284.6875,711312.1875,284675.84375,712026.5,0.0
1772569215.4030116,258099.8125,710872.25,711369.6875,490332.65625,711278.75,711306.125,284600.84375,712020.5,0.0
1772569215.409444,258101.0625,710871.0,711368.25,490139.71875,711277.5,711304.8125,284524.9375,712019.25,0.0
1772569215.4137983,258100.34375,710875.25,711372.4375,490069.71875,711281.625,711308.8125,284526.46875,712023.4375,0.0
1772569215.41383,258093.90625,710880.8125,711378.8125,490038.59375,711287.375,711314.4375,284563.90625,712029.25,0.0
1772569215.4245675,258089.4375,710876.0,711374.625,489861.65625,711282.875,711310.3125,284510.8125,712024.625,0.0
1772569215.427299,258088.625,710869.75,711368.0625,489642.15625,711276.875,711304.0625,284424.71875,712018.25,0.0
1772569215.4273293,258083.0,710873.5625,711371.5625,489561.25,711280.125,711307.625,284418.71875,712021.625,0.0
1772569215.429567,258081.75,710877.4375,711375.4375,489530.3125,711284.0625,711311.25,284455.71875,712025.3125,0.0
1772569215.4419096,258082.28125,710877.0,711374.8125,489398.34375,711283.4375,711310.3125,284433.75,712024.625,0.0
1772569215.4450188,258086.75,710873.0625,711370.75,489163.40625,711279.5625,711306.5625,284338.4375,712021.1875,0.0
1772569215.4450457,258087.109375,710874.8125,711372.9375,489073.625,711281.4375,711308.4375,284319.46875,712023.0,0.0
1772569215.44674,258083.359375,710878.9375,711376.75,489041.96875,711285.0,711312.375,284348.8125,712027.125,0.0
1772569215.4494486,258073.34375,710877.875,711376.0625,488944.96875,711284.125,711311.375,284343.4375,712026.3125,0.0
1772569215.455432,258075.046875,710873.5,711371.5625,488699.375,711279.8125,711307.3125,284240.34375,712022.25,0.0
1772569215.4623573,258087.296875,710878.3125,711376.75,488602.8125,711285.125,711312.5625,284223.46875,712026.9375,0.0
1772569215.4623888,258078.53125,710882.0625,711380.3125,488565.71875,711288.875,711316.125,284248.84375,712030.5625,0.0
1772569215.476055,258074.859375,710879.625,711378.25,488496.3125,711286.75,711314.1875,284258.15625,712028.4375,0.0
1772569215.4760845,258079.609375,710873.1875,711371.6875,488256.09375,711279.8125,711307.3125,284160.15625,712021.75,0.0
1772569215.4781811,258078.078125,710874.1875,711372.9375,488128.40625,711280.4375,711308.1875,284117.59375,712022.8125,0.0
1772569215.4869552,258077.546875,710881.25,711379.6875,488085.59375,711287.625,711315.125,284137.0,712029.875,0.0
1772569215.489251,258074.5,710886.0,711384.625,488052.40625,711293.0,711320.25,284169.0,712035.125,0.0
1772569215.4923573,258074.859375,710879.3125,711378.0,487834.09375,711286.125,711313.125,284083.875,712028.4375,0.0
1772569215.492391,258077.09375,710877.6875,711376.9375,487672.71875,711284.3125,711311.9375,284018.53125,712026.9375,0.0
1772569215.500557,258066.8125,710882.0,711381.375,487617.625,711288.625,711316.375,284024.78125,712030.6875,0.0
1772569215.5036423,258060.640625,710885.4375,711384.0,487594.9375,711291.4375,711319.1875,284060.8125,712033.5625,0.0
1772569215.5036728,258065.921875,710881.875,711380.125,487405.375,711287.4375,711315.25,283995.5625,712029.9375,0.0
1772569215.505509,258073.171875,710880.375,711379.0,487223.71875,711286.25,711313.75,283925.375,712028.875,0.0
1772569215.519287,258071.109375,710883.75,711383.0,487164.4375,711290.0,711317.8125,283926.8125,712032.9375,0.0
1772569215.5223312,258066.90625,710887.8125,711387.5,487148.6875,711294.3125,711322.0625,283966.5,712036.9375,0.0
1772569215.52236,258066.90625,710882.8125,711381.9375,486994.8125,711289.125,711316.6875,283921.4375,712031.375,0.0
1772569215.5241964,258065.125,710877.0625,711376.25,486780.34375,711283.5625,711310.875,283824.875,712025.875,0.0
1772569215.5283425,258065.203125,710881.25,711380.75,486718.03125,711287.875,711315.3125,283817.46875,712030.4375,0.0
1772569215.5323431,258062.34375,710885.3125,711384.5625,486708.46875,711291.9375,711319.1875,283857.15625,712034.1875,0.0
1772569215.5323744,258062.171875,710882.6875,711381.75,486597.59375,711289.3125,711316.5,283834.8125,712031.1875,0.0
1772569215.55152,258061.71875,710880.1875,711379.0625,486378.375,711286.875,711313.875,283739.84375,712028.625,0.0
1772569215.551571,258059.390625,710883.3125,711382.1875,486304.78125,711289.875,711316.875,283727.34375,712031.5,0.0
1772569215.5562434,258057.421875,710888.5625,711387.5625,486288.78125,711294.9375,711322.3125,283762.75,712036.875,0.0
1772569215.5562775,258054.75,710886.8125,711385.625,486220.75,711292.875,711320.5,283763.53125,712034.875,0.0
1772569215.5582888,258061.09375,710883.3125,711381.9375,486007.3125,711289.5625,711316.875,283673.25,712031.6875,0.0
1772569215.5605032,258061.1875,710884.6875,711383.5625,485918.28125,711291.0,711318.3125,283645.4375,712033.0625,0.0
1772569215.5632224,258054.296875,710889.75,711388.625,485904.6875,711295.9375,711323.1875,283672.53125,712038.25,0.0
1772569215.5669224,258057.15625,710893.75,711392.9375,485884.5625,711299.875,711327.5625,283704.34375,712042.375,0.0
1772569215.5735967,258056.890625,710886.25,711385.25,485672.5,711292.4375,711320.0625,283607.53125,712034.6875,0.0
1772569215.5736327,258049.03125,710883.3125,711382.6875,485559.21875,711289.9375,711317.0625,283556.5625,712031.9375,0.0
1772569215.5819294,258049.203125,710885.625,711384.8125,485544.1875,711292.1875,711319.375,283574.53125,712034.375,0.0
1772569215.58862,258048.84375,710888.75,711387.6875,485552.6875,711295.0625,711322.3125,283616.03125,712037.125,0.0
1772569215.5886471,258053.234375,710881.625,711380.75,485373.875,711288.3125,711315.4375,283537.875,712030.125,0.0
1772569215.5934906,258054.5625,710881.0625,711380.125,485253.8125,711287.5,711314.625,283482.8125,712029.6875,0.0
1772569215.59541,258049.109375,710884.125,711383.375,485241.09375,711290.375,711317.75,283491.75,712033.0625,0.0
1772569215.599424,258052.953125,710891.8125,711390.875,485271.5,711298.1875,711325.8125,283540.28125,712040.4375,0.0
1772569215.631009,258050.71875,710890.75,711389.75,485137.84375,711297.1875,711324.375,283485.75,712039.25,0.0
1772569215.6310272,258055.109375,710889.75,711388.375,485003.1875,711295.375,711323.0,283417.4375,712038.0,0.0
1772569215.6354184,258051.078125,710892.8125,711391.875,485003.03125,711298.8125,711326.0625,283423.34375,712041.5,0.0
1772569215.6379108,258043.390625,710893.625,711392.9375,485056.84375,711299.6875,711327.125,283464.3125,712042.1875,0.0
1772569215.645653,258046.796875,710890.75,711390.1875,484997.375,711297.1875,711324.75,283430.6875,712039.0625,0.0
1772569215.6504045,258050.71875,710886.8125,711385.875,484868.0,711292.8125,711320.3125,283346.71875,712035.25,0.0
1772569215.6528952,258052.78125,710891.8125,711391.125,484861.84375,711297.4375,711325.375,283341.90625,712039.8125,0.0
1772569215.655692,258055.28125,710899.3125,711398.75,484897.875,711305.3125,711333.1875,283384.625,712047.5,0.0
1772569215.657913,258050.453125,710895.75,711395.0625,484829.75,711301.75,711329.8125,283369.4375,712044.625,0.0
1772569215.6604068,258052.6875,710891.375,711390.5,484643.5,711297.125,711325.0625,283276.71875,712040.0,0.0
1772569215.6666572,258048.75,710893.75,711393.0,484602.46875,711299.875,711327.5625,283260.375,712042.6875,0.0
1772569215.6696055,258049.203125,710899.0625,711398.6875,484625.28125,711305.6875,711333.0625,283294.34375,712048.0,0.0
1772569215.6716545,258050.640625,710900.3125,711399.75,484607.65625,711306.6875,711334.3125,283308.1875,712049.1875,0.0
1772569215.6741493,258049.46875,710893.75,711393.125,484422.5,711300.0625,711327.5625,283208.96875,712042.6875,0.0
1772569215.6766517,258052.328125,710896.4375,711395.625,484361.78125,711302.4375,711330.1875,283176.40625,712045.0625,0.0
1772569215.6791608,258053.9375,710900.75,711400.25,484370.625,711306.8125,711334.5625,283197.25,712049.1875,0.0
1772569215.6822495,258051.703125,710901.375,711400.5625,484357.59375,711307.5625,711335.0625,283213.5,712049.75,0.0
1772569215.6822693,258051.96875,710894.375,711394.0,484158.3125,711300.5625,711328.5,283117.40625,712043.375,0.0
1772569215.6841526,258042.765625,710892.4375,711392.25,484050.21875,711298.375,711326.25,283068.9375,712041.3125,0.0
1772569215.6866474,258045.890625,710897.25,711396.9375,484045.75,711303.375,711331.0,283095.125,712045.8125,0.0
1772569215.689155,258041.609375,710898.1875,711397.75,484053.96875,711304.5,711332.3125,283132.0625,712046.875,0.0
1772569215.6922524,258040.703125,710893.5,711393.1875,483883.8125,711299.9375,711327.875,283057.84375,712042.375,0.0
1772569215.6922693,258043.65625,710897.4375,711397.125,483762.21875,711303.8125,711331.9375,283002.25,712046.4375,0.0
1772569215.70474,258038.75,710902.875,711402.0625,483751.3125,711308.8125,711337.0,283014.03125,712052.0625,0.0
1772569215.7047563,258038.46875,710905.3125,711404.8125,483772.0625,711311.0625,711338.875,283055.1875,712053.625,0.0
1772569215.706647,258037.578125,710900.3125,711400.0625,483627.65625,711306.3125,711334.3125,282996.25,712049.1875,0.0
1772569215.7091572,258041.6875,710897.5625,711397.0625,483467.4375,711303.625,711331.6875,282918.90625,712046.4375,0.0
1772569215.7116563,258039.09375,710898.8125,711397.875,483430.25,711305.0625,711332.75,282914.09375,712047.875,0.0
1772569215.7204032,258038.46875,710902.25,711401.625,483442.6875,711308.375,711336.0625,282957.28125,712050.875,0.0
1772569215.7236233,258034.71875,710898.0,711397.4375,483325.5625,711304.3125,711331.625,282922.03125,712046.3125,0.0
1772569215.723642,258037.765625,710896.3125,711395.8125,483133.96875,711302.5625,711330.0,282830.3125,712044.625,0.0
1772569215.72541,258034.890625,710899.125,711398.6875,483089.25,711305.25,711332.9375,282819.75,712047.5625,0.0
1772569215.7328985,258030.875,710902.25,711402.0625,483107.59375,711308.625,711336.375,282858.03125,712051.125,0.0
1772569215.7398207,258028.8125,710902.125,711401.875,483052.78125,711308.1875,711336.1875,282848.5625,712050.6875,0.0
1772569215.7398467,258031.953125,710898.625,711398.5,482838.21875,711304.8125,711332.3125,282748.78125,712046.875,0.0
1772569215.7460427,258029.796875,710898.25,711397.75,482749.6875,711304.4375,711331.875,282724.0,712046.6875,0.0
1772569215.7460885,258028.375,710901.8125,711401.3125,482725.1875,711307.625,711335.25,282746.53125,712050.1875,0.0
1772569215.748134,258029.53125,710904.0,711403.875,482675.46875,711309.6875,711337.6875,282766.84375,712052.75,0.0
1772569215.7545063,258029.796875,710897.5625,711397.3125,482452.6875,711303.1875,711330.875,282673.0625,712046.25,0.0
1772569215.765762,258028.90625,710896.9375,711397.125,482350.125,711302.8125,711330.625,282635.84375,712045.8125,0.0
1772569215.7687273,258027.484375,710901.125,711401.3125,482330.1875,711307.3125,711335.25,282659.8125,712049.8125,0.0
1772569215.768761,258023.359375,710905.75,711405.8125,482305.78125,711311.6875,711339.625,282689.59375,712054.3125,0.0
1772569215.7707047,258024.53125,710898.8125,711398.9375,482089.40625,711304.6875,711332.75,282598.125,712047.375,0.0
1772569215.7729712,258024.609375,710896.625,711396.6875,481954.875,711302.375,711330.5625,282545.09375,712045.1875,0.0
1772569215.7872314,258011.921875,710896.9375,711396.8125,481903.46875,711303.0,711330.6875,282549.125,712045.625,0.0
1772569215.7872522,258019.4375,710905.375,711405.375,481891.65625,711311.5,711339.1875,282593.9375,712053.8125,0.0
1772569215.794138,258020.6875,710900.3125,711400.4375,481687.96875,711306.5,711334.125,282518.8125,712048.8125,0.0
1772569215.7966475,258025.515625,710897.8125,711397.75,481524.90625,711304.0,711331.625,282456.59375,712046.875,0.0
1772569215.7991529,258017.28125,710897.625,711398.0625,481471.71875,711303.6875,711331.4375,282458.46875,712046.6875,0.0
1772569215.8016355,258010.84375,710902.1875,711402.3125,481455.25,711308.0,711336.0,282499.96875,712051.0,0.0
1772569215.806642,258004.671875,710897.625,711397.4375,481284.40625,711303.25,711331.25,282449.71875,712046.0625,0.0
1772569215.8097281,258005.125,710895.3125,711395.875,481088.59375,711301.3125,711329.0,282377.125,712044.0,0.0
1772569215.8097436,258002.71875,710898.25,711398.6875,481022.96875,711304.25,711331.875,282379.71875,712046.9375,0.0
1772569215.8116653,258000.46875,710901.8125,711402.125,481000.0,711307.9375,711335.25,282418.40625,712050.5,0.0
1772569215.8259845,257995.5625,710898.625,711398.75,480864.625,711304.625,711332.125,282393.125,712047.1875,0.0
1772569215.8260016,257996.359375,710893.9375,711394.1875,480648.28125,711299.75,711327.25,282307.09375,712042.6875,0.0
1772569215.8329136,257995.109375,710895.8125,711396.0,480577.5625,711302.125,711329.5625,282298.15625,712044.875,0.0
1772569215.835998,257996.546875,710897.375,711397.4375,480564.125,711303.375,711331.0,282332.9375,712046.0625,0.0
1772569215.8360288,258001.1875,710896.75,711397.125,480475.625,711302.75,711330.375,282321.6875,712045.5,0.0
1772569215.8379188,258002.890625,710891.5625,711392.0625,480242.375,711297.75,711325.375,282214.75,712040.875,0.0
1772569215.8517957,258002.0,710897.1875,711397.875,480160.8125,711303.6875,711330.625,282200.625,712046.5,0.0
1772569215.8637557,257996.984375,710904.3125,711404.9375,480139.375,711310.3125,711337.6875,282235.84375,712053.125,0.0
1772569215.8638017,257995.109375,710902.875,711403.6875,480080.90625,711308.8125,711336.375,282250.59375,712051.75,0.0
1772569215.8662672,257996.625,710894.25,711394.875,479847.09375,711299.9375,711327.75,282151.1875,712042.9375,0.0
1772569215.8663013,257999.3125,710896.4375,711396.9375,479744.8125,711302.625,711330.0625,282121.5,712045.6875,0.0
1772569215.8689978,257993.859375,710900.75,711401.3125,479722.1875,711307.375,711334.3125,282148.84375,712050.25,0.0
1772569215.8690555,257992.609375,710903.375,711403.875,479702.53125,711309.5,711336.625,282185.96875,712052.25,0.0
1772569215.870832,258001.109375,710898.3125,711398.8125,479499.75,711304.6875,711331.625,282110.59375,712047.125,0.0
1772569215.89013,257997.96875,710897.5625,711398.375,479361.71875,711303.625,711331.25,282059.0,712046.6875,0.0
1772569215.8901815,257992.703125,710898.25,711399.1875,479319.59375,711304.5,711331.875,282066.96875,712047.375,0.0
1772569215.8974037,257994.125,710903.1875,711404.375,479311.375,711309.5,711337.0625,282105.84375,712052.3125,0.0
1772569215.8974416,257993.328125,710898.25,711399.3125,479132.46875,711304.625,711332.0625,282038.875,712047.375,0.0
1772569215.8974514,257992.15625,710896.4375,711397.5625,478978.5,711303.0,711330.5625,281973.4375,712045.875,0.0
1772569215.897459,257993.765625,710901.125,711402.125,478949.4375,711307.4375,711335.0,281982.375,712050.6875,0.0
1772569215.9001968,257995.109375,710905.0625,711405.875,478957.3125,711311.0625,711338.6875,282024.21875,712054.125,0.0
1772569215.9002283,257993.234375,710899.3125,711400.1875,478803.96875,711305.5625,711333.3125,281970.3125,712048.3125,0.0
1772569215.9160132,257992.703125,710895.75,711396.5,478612.03125,711301.75,711329.4375,281885.0,712044.8125,0.0
1772569215.9188688,257994.671875,710899.6875,711400.875,478561.875,711305.5,711333.5,281882.4375,712048.9375,0.0
1772569215.9189036,257991.171875,710903.875,711404.9375,478558.125,711309.8125,711338.0625,281921.6875,712053.1875,0.0
1772569215.9206817,257983.75,710899.5625,711400.4375,478440.90625,711305.25,711333.375,281893.15625,712048.625,0.0
1772569215.9244425,257997.171875,710898.0,711399.125,478239.65625,711304.0625,711331.6875,281811.53125,712046.9375,0.0
1772569215.9336395,257995.5625,710899.5,711400.6875,478172.40625,711305.4375,711333.125,281802.21875,712048.9375,0.0
1772569215.9336731,257988.9375,710902.25,711403.5625,478155.34375,711308.4375,711336.1875,281837.375,712051.625,0.0
1772569215.936339,257989.921875,710904.0,711405.625,478074.96875,711310.625,711338.3125,281835.03125,712053.375,0.0
1772569215.936381,257992.078125,710895.8125,711397.125,477845.90625,711302.4375,711330.25,281733.65625,712045.3125,0.0
1772569215.9472115,257985.28125,710894.5,711395.375,477754.0,711300.6875,711328.375,281702.90625,712043.5625,0.0
1772569215.9562504,257987.25,710899.5625,711400.5625,477737.53125,711305.5625,711332.9375,281732.03125,712048.75,0.0
1772569215.9562852,257985.640625,710900.125,711400.875,477691.03125,711305.9375,711333.375,281748.40625,712049.1875,0.0
1772569215.9580748,257985.640625,710892.4375,711393.5625,477463.0625,711298.5,711325.8125,281646.375,712041.4375,0.0
1772569215.9657476,257987.0625,710894.375,711395.5,477358.4375,711300.375,711327.5,281610.625,712043.4375,0.0
1772569215.9682148,257980.71875,710899.125,711400.4375,477334.5,711305.5,711332.5,281628.59375,712048.5,0.0
1772569215.9719484,257970.796875,710902.75,711403.6875,477318.65625,711308.625,711336.1875,281659.71875,712051.875,0.0
1772569215.9804919,257969.453125,710897.5625,711398.1875,477116.59375,711303.25,711330.875,281574.15625,712046.125,0.0
1772569215.9829695,257969.1875,710896.625,711398.0625,476981.6875,711302.625,711330.0625,281520.5,712045.8125,0.0
1772569215.9902763,257963.375,710900.375,711401.625,476953.4375,711306.1875,711333.5,281534.8125,712049.375,0.0
1772569215.9903271,257966.0625,710903.6875,711404.5,476954.15625,711310.0,711336.8125,281576.84375,712052.3125,0.0
1772569215.998208,257975.265625,710899.25,711400.4375,476782.9375,711305.6875,711332.5625,281516.3125,712048.1875,0.0
1772569216.0010664,257981.96875,710899.125,711400.25,476616.8125,711305.25,711332.9375,281451.03125,712047.75,0.0
1772569216.0011,257984.390625,710901.1875,711402.3125,476562.625,711307.5625,711335.25,281452.09375,712050.0625,0.0
1772569216.004248,257980.09375,710903.0625,711404.125,476550.75,711309.0,711336.4375,281490.8125,712052.0625,0.0
1772569216.0042791,257976.875,710899.125,711400.4375,476404.9375,711305.125,711332.3125,281449.25,712048.1875,0.0
1772569216.0042872,257977.671875,710897.375,711398.8125,476212.25,711303.6875,711330.875,281369.3125,712046.25,0.0
1772569216.007017,257974.734375,710901.9375,711403.5,476156.5625,711308.375,711335.6875,281370.5625,712051.125,0.0
1772569216.0144546,257969.90625,710907.0,711408.6875,476150.46875,711313.25,711340.625,281412.6875,712056.3125,0.0
1772569216.0237315,257969.90625,710902.875,711404.625,476037.28125,711309.0625,711336.1875,281386.21875,712052.0625,0.0
1772569216.023762,257971.328125,710897.6875,711399.3125,475818.3125,711303.875,711330.8125,281285.53125,712046.875,0.0
1772569216.0256927,257970.4375,710899.4375,711401.0,475748.21875,711305.875,711332.5625,281266.125,712048.375,0.0
1772569216.0318599,257965.609375,710902.75,711404.5625,475739.5625,711309.3125,711336.25,281298.78125,712051.625,0.0
1772569216.0379753,257960.0625,710900.9375,711402.6875,475674.28125,711306.8125,711334.125,281301.53125,712049.625,0.0
1772569216.0425396,257959.96875,710893.3125,711394.75,475450.15625,711299.0,711326.25,281199.96875,712041.5,0.0
1772569216.042573,257956.671875,710896.0,711397.3125,475367.96875,711301.8125,711328.8125,281175.5625,712044.5625,0.0
1772569216.0515275,257957.203125,710897.8125,711399.375,475352.875,711303.875,711331.0,281203.09375,712046.5,0.0
1772569216.0515785,257952.203125,710898.1875,711400.0,475313.90625,711304.625,711331.8125,281220.8125,712047.5,0.0
1772569216.0557,257954.609375,710895.3125,711396.875,475099.5,711301.125,711328.625,281127.125,712043.9375,0.0
1772569216.0584383,257959.796875,710898.6875,711400.4375,475000.34375,711304.625,711332.0625,281095.0,712047.3125,0.0
1772569216.0644119,257957.921875,710901.375,711403.125,474979.40625,711307.75,711335.1875,281114.875,712050.1875,0.0
1772569216.0751004,257951.03125,710899.9375,711401.6875,474964.84375,711306.375,711333.8125,281144.1875,712048.75,0.0
1772569216.0751338,257949.96875,710893.9375,711395.625,474773.4375,711299.9375,711327.25,281063.28125,712042.6875,0.0
1772569216.077078,257955.328125,710895.5625,711397.875,474646.90625,711302.125,711329.1875,281009.1875,712044.6875,0.0
1772569216.079247,257953.984375,710899.875,711401.875,474621.25,711305.9375,711333.3125,281019.09375,712049.0,0.0
1772569216.081813,257953.265625,710903.8125,711405.875,474630.28125,711310.125,711337.3125,281065.59375,712053.0,0.0
1772569216.0856948,257950.859375,710899.3125,711401.3125,474466.75,711305.9375,711332.5625,281005.96875,712048.75,0.0
1772569216.097489,257954.4375,710897.875,711399.8125,474307.09375,711304.25,711331.0625,280934.96875,712047.0625,0.0
1772569216.09754,257955.328125,710902.0,711404.1875,474273.71875,711308.1875,711335.4375,280935.34375,712051.125,0.0
1772569216.0993097,257952.375,710904.0625,711406.25,474282.03125,711310.3125,711337.4375,280972.71875,712053.1875,0.0
1772569216.1029685,257948.625,710901.125,711403.6875,474153.9375,711307.4375,711334.4375,280931.3125,712050.25,0.0
1772569216.1116817,257953.1875,710898.875,711401.3125,473966.0,711305.0625,711332.5,280847.34375,712047.5625,0.0
1772569216.1147368,257953.71875,710902.4375,711404.75,473917.25,711308.375,711335.4375,280841.28125,712051.5,0.0
1772569216.114748,257947.28125,710907.625,711409.8125,473924.96875,711313.625,711340.375,280883.125,712057.125,0.0
1772569216.1166496,257946.65625,710906.9375,711408.9375,473844.40625,711313.0,711340.125,280875.96875,712056.0625,0.0
1772569216.1304133,257946.5625,710901.125,711403.875,473639.5625,711307.9375,711335.1875,280776.90625,712050.6875,0.0
1772569216.1335733,257946.203125,710903.375,711406.25,473586.90625,711309.8125,711337.4375,280756.96875,712052.5,0.0
1772569216.1335843,257944.0625,710907.0,711409.5,473603.28125,711313.375,711340.1875,280788.78125,712055.8125,0.0
1772569216.1354473,257946.109375,710908.25,711411.0,473566.96875,711315.0,711341.875,280797.1875,712057.125,0.0
1772569216.13796,257952.640625,710903.1875,711405.5625,473352.65625,711309.3125,711336.8125,280701.96875,712052.25,0.0
1772569216.1516893,257947.1875,710904.0625,711406.625,473263.78125,711310.3125,711337.125,280669.625,712053.0,0.0
1772569216.1556284,257944.421875,710904.6875,711407.25,473255.65625,711310.9375,711337.75,280691.78125,712053.625,0.0
1772569216.1556544,257934.578125,710905.6875,711408.0625,473237.0625,711311.875,711339.125,280709.3125,712054.75,0.0
1772569216.155663,257937.796875,710901.125,711403.25,473035.90625,711307.3125,711334.8125,280621.0625,712049.75,0.0
1772569216.158013,257938.96875,710901.125,711403.75,472916.625,711307.3125,711334.8125,280580.46875,712049.8125,0.0
1772569216.1617308,257933.0625,710904.0,711406.6875,472887.84375,711310.0625,711337.6875,280600.40625,712052.5,0.0
1772569216.1750116,257929.9375,710905.375,711407.875,472876.03125,711311.5,711338.6875,280637.53125,712054.125,0.0
1772569216.1750453,257937.359375,710902.125,711404.75,472689.71875,711308.0,711335.1875,280569.21875,712051.0625,0.0
1772569216.1777534,257938.609375,710903.0625,711406.0,472552.03125,711309.0625,711336.25,280517.90625,712052.125,0.0
1772569216.177786,257935.203125,710907.875,711410.5625,472526.09375,711313.75,711341.0625,280534.25,712056.9375,0.0
1772569216.1856906,257932.265625,710912.125,711414.8125,472530.84375,711318.0,711345.1875,280578.5,712061.25,0.0
1772569216.190286,257927.609375,710906.375,711409.1875,472364.4375,711311.9375,711339.1875,280516.46875,712055.375,0.0
1772569216.1903393,257924.75,710903.1875,711405.625,472186.0625,711308.8125,711336.1875,280434.75,712051.625,0.0
1772569216.203314,257924.5625,710905.5,711407.75,472146.125,711311.125,711338.9375,280436.25,712053.9375,0.0
1772569216.207612,257924.21875,710909.875,711412.8125,472158.8125,711315.6875,711343.3125,280481.59375,712058.9375,0.0
1772569216.2076633,257922.515625,710907.4375,711409.9375,472041.6875,711313.625,711340.5625,280446.71875,712056.1875,0.0
1772569216.2099993,257927.703125,710903.875,711406.625,471853.03125,711310.125,711337.125,280361.34375,712052.5625,0.0
1772569216.2100298,257931.546875,710908.875,711411.8125,471808.25,711314.625,711342.125,280359.8125,712057.4375,0.0
1772569216.223183,257925.90625,710913.6875,711416.875,471807.71875,711319.875,711346.875,280395.75,712062.625,0.0
1772569216.2313008,257923.40625,710912.75,711415.75,471720.96875,711318.5625,711345.75,280388.25,712061.625,0.0
1772569216.2313523,257919.5625,710905.375,711408.5,471496.9375,711311.5,711338.375,280284.71875,712054.3125,0.0
1772569216.2313623,257918.765625,710905.25,711407.9375,471422.28125,711310.9375,711337.9375,280262.0,712053.8125,0.0
1772569216.2313716,257921.984375,710911.1875,711413.875,471424.25,711316.875,711344.3125,280301.71875,712060.0,0.0
1772569216.2329876,257920.28125,710911.6875,711414.5,471375.34375,711317.75,711345.0,280313.34375,712060.375,0.0
1772569216.239234,257916.4375,710904.875,711408.0625,471154.15625,711310.9375,711338.375,280208.09375,712054.0,0.0
1772569216.2694764,257917.953125,710905.375,711408.125,471067.34375,711311.125,711338.75,280176.34375,712054.3125,0.0
1772569216.2747953,257920.8125,710909.6875,711412.8125,471054.90625,711315.75,711343.3125,280202.28125,712058.75,0.0
1772569216.274823,257918.9375,710911.5,711414.375,471042.28125,711317.5,711344.6875,280239.03125,712060.25,0.0
1772569216.2831078,257919.296875,710905.75,711408.5625,470839.34375,711312.125,711338.9375,280154.1875,712055.0,0.0
1772569216.2831423,257915.8125,710903.8125,711406.6875,470719.625,711309.8125,711337.3125,280104.9375,712052.9375,0.0
1772569216.2831516,257911.96875,710905.6875,711408.3125,470695.40625,711311.5,711339.1875,280119.6875,712054.5625,0.0
1772569216.2855203,257913.65625,710910.25,711413.0625,470698.53125,711315.875,711343.3125,280163.75,712059.0,0.0
1772569216.2879927,257914.90625,710905.875,711409.1875,470519.34375,711311.6875,711339.3125,280092.125,712055.0,0.0
1772569216.2907283,257917.953125,710905.375,711408.5625,470379.15625,711311.0625,711338.375,280029.03125,712054.125,0.0
1772569216.2932065,257919.296875,710909.6875,711412.9375,470355.1875,711315.625,711342.6875,280039.84375,712058.5,0.0
1772569216.2955692,257914.28125,710914.625,711417.5,470366.90625,711320.5,711347.4375,280084.71875,712063.0625,0.0
1772569216.2982347,257908.828125,710909.6875,711412.9375,470213.03125,711315.625,711342.625,280027.6875,712058.3125,0.0
1772569216.3007257,257907.40625,710906.9375,711409.8125,470041.03125,711312.625,711340.0,279949.71875,712055.375,0.0
1772569216.3029778,257904.8125,710910.4375,711413.6875,470005.625,711316.25,711343.5,279951.84375,712058.6875,0.0
1772569216.3058205,257901.5,710913.875,711417.375,470018.59375,711320.1875,711347.0625,279994.875,712062.6875,0.0
1772569216.3080573,257905.796875,710912.8125,711416.375,469919.625,711319.1875,711345.9375,279972.5,712062.0625,0.0
1772569216.3113666,257905.078125,710909.5,711412.8125,469729.0,711315.5,711342.3125,279884.0,712058.5625,0.0
1772569216.3114,257894.078125,710907.875,711411.375,469671.6875,711314.0,711341.0,279867.8125,712056.9375,0.0
1772569216.3132153,257886.921875,710910.6875,711414.125,469674.0,711316.5,711343.4375,279902.15625,712059.1875,0.0
1772569216.3250177,257898.734375,710914.1875,711417.5,469614.90625,711320.4375,711347.5,279913.21875,712063.0625,0.0
1772569216.325052,257899.53125,710907.25,711410.375,469403.65625,711313.5625,711340.75,279817.75,712056.3125,0.0
1772569216.32701,257899.265625,710907.875,711410.4375,469328.0,711313.75,711340.5625,279795.65625,712056.8125,0.0
1772569216.330787,257898.828125,710911.375,711414.5,469323.34375,711317.3125,711344.5625,279830.53125,712060.0625,0.0
1772569216.3342402,257893.640625,710911.5,711415.125,469283.03125,711318.0,711345.1875,279849.40625,712060.0625,0.0
1772569216.34132,257898.734375,710908.375,711412.1875,469078.8125,711314.875,711342.0625,279762.5,712057.5625,0.0
1772569216.341354,257898.734375,710911.9375,711415.625,468990.59375,711318.1875,711345.5625,279727.96875,712060.75,0.0
1772569216.351974,257888.625,710911.6875,711415.3125,468969.46875,711317.5625,711345.125,279733.78125,712060.375,0.0
1772569216.35503,257886.578125,710913.1875,711416.625,468959.5625,711319.375,711346.375,279761.875,712062.0625,0.0
1772569216.3550665,257893.1875,710909.1875,711412.8125,468766.96875,711315.4375,711342.125,279680.875,712057.9375,0.0
1772569216.3594525,257890.859375,710907.4375,711410.8125,468644.65625,711313.375,711340.375,279631.875,712056.1875,0.0
1772569216.3620849,257887.828125,710911.1875,711414.3125,468628.125,711316.9375,711344.125,279652.875,712059.8125,0.0
1772569216.3656793,257886.75,710913.8125,711416.8125,468632.40625,711319.5625,711346.6875,279693.46875,712062.25,0.0
1772569216.37492,257887.109375,710907.4375,711410.8125,468460.40625,711313.625,711341.0,279622.03125,712056.3125,0.0
1772569216.3749738,257892.46875,710905.875,711409.0625,468319.9375,711311.75,711339.1875,279557.5625,712054.8125,0.0
1772569216.3768568,257890.328125,710907.625,711410.8125,468296.15625,711313.5625,711340.8125,279562.75,712056.3125,0.0
1772569216.3830132,257887.375,710911.6875,711415.0,468316.28125,711317.75,711344.75,279612.46875,712060.75,0.0
1772569216.3917327,257885.953125,710908.6875,711412.1875,468177.34375,711314.625,711342.0,279567.9375,712057.875,0.0
1772569216.3950298,257887.640625,710904.3125,711407.6875,468003.53125,711310.25,711337.6875,279491.15625,712052.9375,0.0
1772569216.3950665,257893.015625,710908.5625,711412.25,467969.1875,711314.6875,711341.875,279496.59375,712057.4375,0.0
1772569216.396732,257883.078125,710912.8125,711416.125,467976.8125,711318.625,711345.5625,279535.21875,712061.625,0.0
1772569216.4044464,257872.625,710908.375,711411.4375,467868.15625,711314.0,711341.0,279504.375,712056.8125,0.0
1772569216.4188328,257868.515625,710904.0625,711407.3125,467669.0625,711309.8125,711336.875,279409.25,712052.5,0.0
1772569216.4188669,257864.9375,710907.625,711411.0,467619.34375,711313.375,711340.25,279400.3125,712056.25,0.0
1772569216.4204822,257862.96875,710911.75,711415.125,467631.40625,711317.3125,711344.1875,279441.4375,712060.375,0.0
1772569216.4232242,257857.6875,710909.6875,711412.875,467569.46875,711315.125,711342.625,279440.1875,712058.3125,0.0
1772569216.4292035,257856.171875,710901.0,711404.1875,467357.9375,711306.6875,711334.3125,279340.40625,712049.625,0.0
1772569216.4325604,257855.015625,710906.75,711409.9375,467294.8125,711312.625,711339.9375,279326.28125,712055.375,0.0
1772569216.4325924,257849.203125,710914.0625,711417.8125,467299.53125,711320.25,711347.5,279365.625,712062.9375,0.0
1772569216.4404747,257846.421875,710915.5,711419.25,467269.40625,711321.5,711348.875,279387.625,712064.5,0.0
1772569216.4431677,257843.296875,710909.8125,711413.0625,467063.40625,711315.125,711342.5,279297.3125,712058.0625,0.0
1772569216.4473174,257844.90625,710912.0,711415.625,466976.34375,711317.6875,711345.125,279267.90625,712060.4375,0.0
1772569216.447345,257844.640625,710917.5625,711421.25,466968.5625,711323.375,711351.125,279296.3125,712066.1875,0.0
1772569216.4519856,257841.78125,710918.5625,711422.5625,466959.25,711324.75,711352.0,279329.21875,712067.4375,0.0
1772569216.45627,257846.25,710911.9375,711415.625,466764.4375,711317.5625,711345.125,279247.78125,712060.4375,0.0
1772569216.4563036,257851.34375,710911.8125,711414.9375,466649.28125,711317.5,711344.5,279203.875,712060.4375,0.0
1772569216.4582052,257835.515625,710912.9375,711416.375,466621.84375,711318.625,711345.9375,279209.34375,712061.6875,0.0
1772569216.4744377,257826.9375,710916.0625,711419.75,466629.0,711322.0625,711349.0625,279248.21875,712064.75,0.0
1772569216.477465,257827.46875,710911.6875,711415.0,466465.28125,711317.6875,711344.6875,279185.0,712060.75,0.0
1772569216.4774935,257827.65625,710907.75,711411.625,466312.5,711313.625,711340.625,279113.03125,712056.6875,0.0
1772569216.4793065,257824.609375,710912.5625,711417.0,466290.75,711318.5625,711345.9375,279125.75,712061.5,0.0
1772569216.485687,257819.609375,710917.375,711421.5625,466311.59375,711323.1875,711350.8125,279177.875,712066.375,0.0
1772569216.4883385,257818.265625,710913.0,711417.25,466178.09375,711319.0,711346.6875,279132.4375,712062.5,0.0
1772569216.4906955,257816.484375,710909.0,711413.4375,465994.8125,711314.875,711342.4375,279043.21875,712058.5,0.0
1772569216.5023415,257815.9375,710911.5625,711415.75,465952.34375,711316.9375,711344.8125,279036.40625,712060.625,0.0
1772569216.5023756,257821.390625,710916.75,711420.8125,465972.125,711322.5,711350.3125,279084.6875,712065.625,0.0
1772569216.504448,257827.734375,710915.9375,711419.9375,465881.1875,711321.875,711349.1875,279066.71875,712064.8125,0.0
1772569216.5066755,257825.0625,710909.625,711413.6875,465682.25,711315.625,711342.875,278971.34375,712058.5,0.0
1772569216.510446,257821.578125,710913.1875,711417.4375,465634.59375,711319.1875,711346.4375,278962.5625,712061.875,0.0
1772569216.520049,257824.34375,710916.125,711420.5,465641.03125,711322.3125,711349.5625,278998.40625,712065.1875,0.0
1772569216.5200803,257825.234375,710914.9375,711418.875,465591.0625,711321.125,711348.4375,279004.0625,712064.0,0.0
1772569216.522544,257823.71875,710911.375,711415.125,465393.125,711317.0625,711344.8125,278911.875,712060.375,0.0
1772569216.5226028,257826.84375,710915.25,711419.3125,465341.34375,711321.125,711349.125,278893.71875,712064.5625,0.0
1772569216.5379877,257827.46875,710919.375,711423.3125,465350.75,711325.0,711352.875,278921.875,712068.25,0.0
1772569216.5455391,257821.65625,710918.875,711422.8125,465317.46875,711324.5625,711352.0,278936.09375,712067.6875,0.0
1772569216.5455797,257824.796875,710912.75,711417.25,465109.96875,711318.9375,711346.0,278842.75,712062.25,0.0
1772569216.5455873,257823.453125,710911.3125,711416.1875,465004.28125,711317.5625,711345.0,278801.1875,712060.625,0.0
1772569216.548858,257822.109375,710914.1875,711419.0625,464986.21875,711320.5,711347.9375,278822.28125,712063.375,0.0
1772569216.5488918,257822.375,710916.125,711420.625,464979.96875,711322.125,711349.5,278858.3125,712065.25,0.0
1772569216.550711,257825.6875,710910.5,711415.1875,464790.59375,711316.3125,711343.9375,278776.15625,712059.9375,0.0
1772569216.5617898,257827.65625,710910.75,711415.0,464671.15625,711316.5,711343.9375,278721.875,712059.75,0.0
1772569216.568846,257820.59375,710913.25,711417.4375,464646.84375,711318.8125,711346.375,278725.28125,712061.8125,0.0
1772569216.5688834,257812.28125,710915.5,711419.9375,464659.09375,711321.25,711348.75,278769.4375,712063.9375,0.0
1772569216.5752623,257812.8125,710909.8125,711414.1875,464492.15625,711315.75,711343.5625,278706.5,712058.6875,0.0
1772569216.5753136,257812.71875,710908.8125,711413.3125,464336.78125,711314.8125,711342.625,278640.71875,712058.0625,0.0
1772569216.5812683,257811.296875,710912.125,711416.125,464311.28125,711317.8125,711345.625,278654.5625,712061.0,0.0
1772569216.581302,257805.65625,710914.625,711418.875,464327.03125,711320.4375,711348.125,278704.375,712063.75,0.0
1772569216.5919747,257807.71875,710911.5,711416.1875,464201.78125,711317.8125,711345.0,278667.625,712060.8125,0.0
1772569216.5961719,257811.296875,710908.4375,711413.25,464026.78125,711314.875,711342.0625,278587.78125,712058.125,0.0
1772569216.5962055,257811.5625,710913.25,711417.875,463995.25,711319.1875,711346.8125,278590.28125,712062.625,0.0
1772569216.6023116,257810.578125,710918.25,711423.0,464013.375,711324.1875,711352.0,278634.53125,712067.5,0.0
1772569216.6023536,257810.484375,710917.5625,711422.375,463936.0625,711323.5625,711351.125,278622.65625,712066.875,0.0
1772569216.6162686,257811.46875,710912.625,711417.6875,463743.5625,711319.0625,711346.4375,278530.09375,712062.125,0.0
1772569216.6163049,257805.21875,710915.0625,711419.875,463693.5625,711321.4375,711348.25,278517.84375,712064.375,0.0
1772569216.6182103,257791.984375,710916.125,711421.25,463692.875,711322.3125,711349.5625,278546.1875,712065.25,0.0
1772569216.6210885,257787.6875,710913.6875,711419.0625,463639.125,711319.625,711347.0,278546.46875,712062.6875,0.0
1772569216.6211207,257789.03125,710908.0625,711413.125,463436.09375,711314.25,711341.625,278449.375,712057.3125,0.0
1772569216.6294887,257791.0,710910.0625,711414.75,463368.125,711316.25,711343.5,278425.15625,712059.375,0.0
1772569216.639063,257787.515625,710915.125,711419.875,463372.78125,711321.125,711348.4375,278459.65625,712063.9375,0.0
1772569216.6391106,257790.546875,710918.125,711422.8125,463358.21875,711324.125,711351.375,278490.78125,712067.0,0.0
1772569216.6413727,257795.46875,710913.5625,711418.75,463165.0,711319.8125,711347.3125,278410.125,712062.75,0.0
1772569216.6414084,257795.734375,710914.4375,711419.25,463072.65625,711320.25,711347.9375,278375.875,712063.375,0.0
1772569216.6544497,257786.96875,710916.125,711420.75,463052.0,711322.0625,711349.5,278387.3125,712064.9375,0.0
1772569216.657626,257782.140625,710914.9375,711419.6875,463045.5625,711320.6875,711348.25,278414.5,712063.9375,0.0
1772569216.657664,257789.46875,710911.5625,711416.375,462875.78125,711317.3125,711344.3125,278342.0,712060.4375,0.0
1772569216.659441,257793.234375,710912.8125,711417.6875,462788.96875,711318.8125,711345.8125,278286.28125,712062.0,0.0
1772569216.6617427,257787.421875,710917.0,711422.0625,462791.375,711323.125,711350.1875,278299.71875,712066.0,0.0
1772569216.6683009,257778.125,710919.0625,711424.0625,462804.59375,711325.375,711352.5,278338.96875,712068.3125,0.0
1772569216.6706953,257774.09375,710913.1875,711418.4375,462649.5625,711319.625,711346.875,278276.8125,712062.75,0.0
1772569216.677349,257774.453125,710912.3125,711417.375,462491.5,711318.4375,711345.75,278205.375,712061.625,0.0
1772569216.677379,257769.625,710913.4375,711417.8125,462458.78125,711319.375,711346.8125,278211.375,712062.25,0.0
1772569216.67926,257764.890625,710916.875,711421.25,462470.84375,711322.3125,711350.0,278255.4375,712065.625,0.0
1772569216.688288,257778.75,710915.6875,711420.5625,462363.5625,711321.75,711349.0625,278231.75,712064.75,0.0
1772569216.6972876,257779.90625,710911.6875,711416.125,462180.8125,711317.3125,711344.5625,278147.4375,712060.5625,0.0
1772569216.6973116,257780.359375,710917.5,711421.9375,462144.0625,711323.125,711350.3125,278147.09375,712066.4375,0.0
1772569216.6991735,257780.265625,710922.75,711427.375,462165.15625,711328.5625,711355.625,278190.53125,712071.625,0.0
1772569216.7016776,257777.671875,710921.5,711426.8125,462085.9375,711327.3125,711354.6875,278174.71875,712070.4375,0.0
1772569216.7054374,257775.4375,710916.125,711421.5625,461887.5625,711321.9375,711349.5,278081.5625,712064.9375,0.0
1772569216.7226827,257770.25,710918.5625,711423.8125,461832.75,711324.4375,711351.8125,278070.5625,712067.625,0.0
1772569216.7227347,257769.09375,710924.0,711429.125,461838.375,711329.9375,711357.375,278111.875,712073.0625,0.0
1772569216.724474,257770.96875,710925.3125,711430.5,461799.03125,711331.0,711358.4375,278133.84375,712074.375,0.0
1772569216.7267888,257778.921875,710920.3125,711425.75,461594.65625,711326.0625,711353.625,278043.28125,712069.9375,0.0
1772569216.7294576,257778.65625,710917.5,711422.625,461505.875,711323.375,711350.8125,278006.09375,712066.8125,0.0
1772569216.7319472,257776.328125,710920.875,711425.8125,461503.8125,711326.75,711354.0625,278037.46875,712070.375,0.0
1772569216.7357123,257770.515625,710921.75,711426.625,461485.65625,711327.6875,711354.9375,278063.84375,712071.1875,0.0
1772569216.7423084,257771.59375,710916.6875,711421.5625,461286.65625,711322.6875,711349.75,277977.40625,712065.75,0.0
1772569216.7423477,257770.609375,710915.625,711421.0,461184.71875,711321.875,711349.0625,277937.0625,712065.125,0.0
1772569216.7561104,257764.890625,710917.3125,711422.375,461168.90625,711323.1875,711350.625,277950.9375,712066.4375,0.0
1772569216.7561283,257763.734375,710921.875,711426.8125,461178.5625,711327.6875,711354.75,277991.25,712070.625,0.0
1772569216.7579415,257766.40625,710914.4375,711419.5625,461001.09375,711320.25,711347.5,277916.40625,712063.375,0.0
1772569216.760432,257766.859375,710911.9375,711417.375,460866.25,711318.3125,711345.3125,277855.0,712061.0625,0.0
1772569216.7630172,257760.421875,710913.25,711418.625,460844.53125,711319.6875,711347.0,277864.65625,712062.75,0.0
1772569216.7672584,257762.921875,710918.875,711424.125,460867.34375,711325.1875,711352.1875,277918.375,712068.25,0.0
1772569216.7672756,257765.15625,710915.6875,711420.75,460726.15625,711321.5,711348.6875,277870.46875,712064.375,0.0
1772569216.7779171,257764.890625,710914.8125,711419.6875,460568.71875,711320.6875,711347.9375,277799.65625,712063.6875,0.0
1772569216.7804146,257758.984375,710916.3125,711421.75,460540.0,711321.6875,711349.5625,277800.71875,712065.4375,0.0
1772569216.7829213,257760.59375,710920.6875,711426.0,460566.03125,711325.875,711353.9375,277852.84375,712069.75,0.0
1772569216.7866707,257762.828125,710918.125,711423.3125,460456.5,711323.625,711351.375,277825.03125,712066.8125,0.0
1772569216.7972784,257759.53125,710913.1875,711418.4375,460270.8125,711318.75,711346.4375,277740.65625,712061.8125,0.0
1772569216.7972972,257762.03125,710915.9375,711421.25,460233.15625,711321.5625,711349.0625,277740.90625,712064.8125,0.0
1772569216.7991729,257762.03125,710919.875,711425.125,460246.21875,711325.6875,711352.875,277780.875,712068.4375,0.0
1772569216.8017352,257760.6875,710917.625,711423.25,460179.15625,711323.5625,711350.75,277773.71875,712067.0,0.0
1772569216.8113375,257765.78125,710910.25,711415.9375,459982.21875,711315.875,711343.3125,277676.09375,712059.3125,0.0
1772569216.8113556,257762.03125,710910.875,711416.5625,459926.40625,711316.5,711344.375,277656.34375,712059.625,0.0
1772569216.8129392,257753.71875,710916.3125,711421.9375,459936.59375,711321.875,711349.5625,277690.5625,712065.1875,0.0
1772569216.8219888,257755.6875,710919.0625,711424.9375,459910.5,711324.875,711352.625,277708.71875,712068.4375,0.0
1772569216.8248646,257760.6875,710912.5625,711418.75,459713.09375,711318.3125,711345.9375,277617.96875,712062.125,0.0
1772569216.824882,257755.953125,710912.5625,711418.625,459629.75,711318.4375,711346.1875,277583.46875,712062.3125,0.0
1772569216.8267848,257754.34375,710918.375,711424.25,459639.875,711324.0,711351.8125,277621.46875,712067.6875,0.0
1772569216.8407187,257752.546875,710919.4375,711424.9375,459638.78125,711325.1875,711352.625,277659.5625,712069.0625,0.0
1772569216.8478892,257749.875,710911.6875,711417.0625,459440.40625,711317.3125,711344.8125,277570.21875,712061.4375,0.0
1772569216.847939,257756.578125,710914.8125,711420.75,459341.5,711320.5,711348.125,277531.625,712064.1875,0.0
1772569216.8494775,257754.875,710919.4375,711425.125,459334.90625,711325.1875,711352.4375,277557.1875,712068.5625,0.0
1772569216.8519711,257746.203125,710921.25,711426.8125,459345.90625,711326.875,711354.25,277603.125,712070.375,0.0
1772569216.8569431,257740.921875,710914.625,711420.1875,459171.09375,711320.3125,711347.8125,277531.78125,712063.6875,0.0
1772569216.8594668,257740.390625,710912.8125,711418.625,459033.3125,711318.625,711346.1875,277471.09375,712062.25,0.0
1772569216.8633478,257739.40625,710916.875,711422.25,459014.8125,711322.5,711349.9375,277484.3125,712065.5625,0.0
1772569216.871767,257738.0625,710921.5625,711427.0,459036.90625,711327.375,711354.375,277531.875,712070.125,0.0
1772569216.8769932,257736.640625,710914.8125,711420.625,458899.21875,711320.4375,711348.0625,277482.53125,712063.875,0.0
1772569216.880047,257741.203125,710912.375,711418.3125,458744.09375,711317.9375,711345.5625,277410.71875,712061.5,0.0
1772569216.8800852,257743.96875,710918.5625,711424.4375,458721.21875,711324.0,711351.4375,277418.0625,712067.625,0.0
1772569216.882032,257742.171875,710919.8125,711425.5,458734.96875,711325.375,711353.0625,277460.34375,712068.6875,0.0
1772569216.8846316,257750.21875,710918.375,711424.125,458636.625,711324.0,711351.5625,277440.40625,712067.0625,0.0
1772569216.9129896,257756.484375,710916.0625,711421.625,458458.875,711321.5625,711349.0625,277361.375,712064.75,0.0
1772569216.916268,257755.40625,710917.1875,711423.0625,458416.96875,711322.75,711350.3125,277352.4375,712066.1875,0.0
1772569216.9163017,257751.203125,710920.75,711426.4375,458424.375,711326.25,711353.625,277387.3125,712069.6875,0.0
1772569216.9182236,257750.578125,710920.4375,711426.4375,458362.25,711326.0625,711353.625,277388.46875,712069.3125,0.0
1772569216.92079,257751.296875,710915.6875,711421.5625,458160.96875,711321.4375,711348.875,277298.4375,712064.5625,0.0
1772569216.923257,257755.6875,710918.4375,711424.5625,458101.78125,711324.125,711351.8125,277286.28125,712067.875,0.0
1772569216.9257944,257754.609375,710920.625,711426.625,458108.84375,711326.5,711353.625,277323.5625,712069.5625,0.0
1772569216.9281645,257751.296875,710918.375,711424.6875,458079.25,711324.5625,711352.1875,277341.1875,712067.875,0.0
1772569216.93947,257751.125,710912.9375,711419.0625,457878.28125,711318.75,711346.4375,277247.75,712062.125,0.0
1772569216.941818,257749.515625,710914.0625,711420.3125,457799.25,711319.8125,711347.6875,277217.78125,712063.25,0.0
1772569216.9456024,257751.65625,710921.375,711427.375,457803.71875,711327.3125,711354.5625,277253.09375,712070.625,0.0
1772569216.9456341,257746.65625,710926.5,711432.75,457802.5625,711332.3125,711359.5625,277291.65625,712075.75,0.0
1772569216.9456425,257740.84375,710919.4375,711425.6875,457607.46875,711325.375,711352.6875,277204.46875,712068.75,0.0
1772569216.9481063,257738.0625,710915.875,711422.25,457492.5625,711321.75,711349.125,277152.4375,712065.0,0.0
1772569216.9510105,257731.546875,710915.9375,711422.375,457476.46875,711322.1875,711349.1875,277161.5625,712065.625,0.0
1772569216.9532073,257731.359375,710921.6875,711428.0,457498.3125,711327.6875,711354.875,277208.84375,712071.25,0.0
1772569216.9558034,257734.3125,710915.875,711422.0625,457331.375,711321.5,711349.0625,277141.15625,712065.25,0.0
1772569216.960145,257738.421875,710913.875,711419.6875,457189.5625,711319.5625,711346.625,277076.8125,712063.5,0.0
1772569216.9601767,257747.0,710919.1875,711425.125,457177.78125,711325.0,711351.75,277096.90625,712068.4375,0.0
1772569216.9732363,257748.796875,710921.0625,711427.5625,457197.4375,711327.25,711353.875,277144.21875,712070.375,0.0
1772569216.9760728,257753.4375,710917.9375,711424.5625,457068.6875,711323.625,711350.9375,277104.78125,712067.5,0.0
1772569216.9761028,257759.53125,710916.3125,711423.1875,456904.71875,711322.5625,711349.75,277034.15625,712066.375,0.0
1772569216.9782062,257755.6875,710917.3125,711424.25,456864.40625,711323.5625,711350.75,277030.125,712066.8125,0.0
1772569216.9844823,257752.28125,710917.375,711423.6875,456870.9375,711322.75,711350.5,277064.46875,712066.8125,0.0
1772569216.986872,257753.984375,710917.1875,711423.875,456784.375,711322.75,711350.5625,277052.84375,712067.0625,0.0
1772569216.9933112,257757.5625,710914.3125,711421.1875,456600.03125,711320.25,711347.9375,276971.5625,712064.0,0.0
1772569217.0022807,257758.359375,710916.125,711422.4375,456556.125,711321.9375,711349.6875,276965.21875,712065.625,0.0
1772569217.00231,257755.953125,710922.375,711428.875,456570.15625,711328.3125,711355.8125,277003.3125,712072.0,0.0
1772569217.009114,257757.296875,710921.9375,711428.6875,456517.3125,711327.6875,711355.625,277006.34375,712071.4375,0.0
1772569217.0091417,257765.0625,710919.0,711425.5,456324.65625,711324.5625,711352.375,276920.15625,712068.4375,0.0
1772569217.0091484,257767.03125,710920.875,711427.5625,456260.5625,711326.75,711354.375,276898.4375,712070.625,0.0
1772569217.0116827,257765.609375,710921.3125,711428.1875,456256.15625,711327.5,711355.125,276920.5,712071.1875,0.0
1772569217.0154133,257763.375,710920.4375,711427.375,456228.09375,711326.5,711354.25,276937.15625,712070.3125,0.0
1772569217.0242054,257764.4375,710915.0625,711421.9375,456031.21875,711320.9375,711348.5625,276849.53125,712064.625,0.0
1772569217.0310085,257759.34375,710916.125,711422.8125,455952.53125,711322.0625,711349.6875,276823.40625,712065.75,0.0
1772569217.031024,257755.59375,710921.125,711428.0,455956.75,711327.3125,711354.9375,276854.53125,712070.9375,0.0
1772569217.0366812,257753.0,710922.75,711429.625,455951.75,711328.5625,711356.4375,276884.40625,712072.1875,0.0
1772569217.0435865,257752.1875,710915.25,711422.4375,455759.34375,711320.875,711348.6875,276799.71875,712064.8125,0.0
1772569217.0436041,257757.46875,710915.125,711421.9375,455650.4375,711320.8125,711348.5,276754.3125,712064.75,0.0
1772569217.0460668,257748.890625,710918.5625,711425.0625,455639.78125,711324.375,711352.0,276772.1875,712067.4375,0.0
1772569217.0460837,257748.171875,710921.6875,711428.5,455661.625,711327.75,711355.125,276819.84375,712071.1875,0.0
1772569217.0616837,257748.53125,710916.3125,711422.8125,455506.84375,711322.5,711349.6875,276761.375,712065.75,0.0
1772569217.0666718,257741.203125,710912.8125,711419.3125,455358.96875,711319.0,711346.4375,276693.875,712062.125,0.0
1772569217.066687,257741.828125,710918.125,711425.125,455342.78125,711324.375,711351.5625,276708.625,712067.6875,0.0
1772569217.0666947,257745.390625,710923.0,711430.0625,455372.1875,711329.1875,711356.75,276762.34375,712072.5,0.0
1772569217.069754,257749.59375,710919.5,711426.1875,455256.59375,711325.0,711353.0625,276730.78125,712068.75,0.0
1772569217.069769,257748.171875,710915.875,711422.875,455089.3125,711321.4375,711349.5,276656.0625,712065.1875,0.0
1772569217.083134,257742.09375,710920.3125,711427.1875,455060.53125,711326.0625,711353.9375,276662.03125,712069.6875,0.0
1772569217.086181,257736.28125,710922.8125,711430.0625,455075.28125,711328.75,711356.3125,276702.71875,712072.1875,0.0
1772569217.086218,257737.359375,710920.625,711427.5625,454990.875,711326.3125,711353.75,276687.78125,712070.0,0.0
1772569217.0894682,257742.0,710916.875,711423.6875,454815.8125,711322.3125,711350.375,276610.28125,712066.0625,0.0
1772569217.103648,257741.28125,710918.25,711424.9375,454770.65625,711323.75,711351.875,276596.25,712067.6875,0.0
1772569217.1036785,257737.4375,710922.8125,711429.75,454787.84375,711328.5,711356.3125,276635.9375,712072.0,0.0
1772569217.106727,257737.0,710922.5625,711429.75,454747.6875,711328.3125,711355.8125,276647.71875,712071.6875,0.0
1772569217.106758,257732.703125,710915.25,711422.4375,454555.75,711320.9375,711348.5625,276558.78125,712064.625,0.0
1772569217.106766,257729.84375,710915.0625,711422.4375,454494.03125,711320.9375,711348.875,276537.9375,712065.1875,0.0
1772569217.1105416,257727.34375,710920.0,711427.0625,454510.59375,711325.8125,711353.5,276579.15625,712069.75,0.0
1772569217.1194706,257726.0,710922.5625,711429.5,454506.28125,711328.3125,711356.3125,276614.5625,712071.875,0.0
1772569217.1336272,257730.640625,710918.8125,711425.5625,454319.6875,711324.5625,711352.0625,276536.34375,712067.6875,0.0
1772569217.1336553,257734.765625,710919.4375,711426.4375,454235.125,711325.5,711353.0625,276503.0625,712068.9375,0.0
1772569217.1354089,257734.671875,710922.9375,711429.75,454238.4375,711328.9375,711356.4375,276529.1875,712072.1875,0.0
1772569217.137948,257737.0,710928.5,711435.3125,454255.34375,711334.75,711361.75,276574.34375,712078.125,0.0
1772569217.1404407,257735.65625,710921.125,711428.1875,454076.15625,711327.125,711354.375,276494.75,712070.3125,0.0
1772569217.1429317,257731.625,710920.3125,711427.0625,453963.78125,711326.0625,711353.3125,276443.09375,712069.125,0.0
1772569217.1466737,257719.015625,710920.25,711427.0,453949.03125,711326.125,711353.125,276450.5,712069.6875,0.0
1772569217.1585915,257714.1875,710921.75,711428.875,453976.125,711327.6875,711354.9375,276497.15625,712071.375,0.0
1772569217.1586092,257718.9375,710920.4375,711427.5625,453837.34375,711326.3125,711353.5,276446.5625,712069.75,0.0
1772569217.1610537,257720.8125,710920.25,711427.4375,453698.40625,711325.8125,711353.25,276385.15625,712069.5,0.0
1772569217.1610694,257723.671875,710922.1875,711429.0625,453685.625,711328.0,711355.125,276400.0,712071.25,0.0
1772569217.162922,257723.671875,710925.25,711432.25,453717.1875,711331.1875,711358.4375,276451.65625,712074.25,0.0
1772569217.1743207,257717.40625,710920.875,711427.625,453600.15625,711326.125,711353.6875,276412.6875,712069.3125,0.0
1772569217.177287,257716.4375,710917.125,711423.6875,453429.125,711322.3125,711349.5,276335.625,712065.625,0.0
1772569217.1773155,257714.46875,710920.125,711426.8125,453402.75,711325.8125,711352.6875,276344.1875,712068.875,0.0
1772569217.18179,257715.359375,710924.0,711430.875,453432.53125,711329.8125,711356.5625,276402.03125,712072.8125,0.0
1772569217.1843328,257729.9375,710924.8125,711432.25,453365.28125,711330.6875,711357.8125,276404.71875,712073.9375,0.0
1772569217.1932173,257717.6875,710914.625,711421.5625,453155.625,711320.0625,711347.5,276301.90625,712063.75,0.0
1772569217.1961052,257725.640625,710921.0625,711427.8125,453118.0625,711326.875,711354.0625,276305.65625,712070.375,0.0
1772569217.1961243,257723.046875,710924.1875,711430.9375,453126.75,711329.8125,711356.9375,276340.1875,712073.25,0.0
1772569217.2068057,257721.890625,710924.375,711431.625,453088.375,711330.0,711357.1875,276350.71875,712073.5,0.0
1772569217.2097447,257725.28125,710919.6875,711427.0625,452892.3125,711325.625,711352.8125,276260.15625,712068.75,0.0
1772569217.2097597,257725.8125,710920.125,711427.5625,452831.0625,711326.3125,711353.3125,276244.15625,712069.5,0.0
1772569217.2116623,257720.546875,710922.6875,711429.9375,452844.03125,711328.5625,711355.75,276281.0625,712071.875,0.0
1772569217.223142,257717.953125,710926.875,711434.0,452857.1875,711332.6875,711360.0625,276326.9375,712075.8125,0.0
1772569217.226012,257726.890625,710923.75,711431.375,452682.84375,711330.25,711357.375,276247.8125,712073.0625,0.0
1772569217.2260273,257729.578125,710923.125,711431.0,452603.09375,711329.625,711356.625,276202.5,712072.8125,0.0
1772569217.2281456,257722.875,710926.875,711434.25,452624.46875,711332.75,711360.1875,276227.875,712076.1875,0.0
1772569217.236717,257718.84375,710928.5,711435.875,452659.25,711334.1875,711361.8125,276273.21875,712077.875,0.0
1772569217.2397814,257728.671875,710922.9375,711430.6875,452505.375,711328.8125,711356.4375,276204.8125,712072.4375,0.0
1772569217.239807,257732.609375,710920.9375,711428.625,452393.59375,711326.875,711354.3125,276148.9375,712070.375,0.0
1772569217.2417948,257731.359375,710923.5625,711431.0,452403.625,711329.375,711357.0625,276174.875,712073.0625,0.0
1772569217.255726,257734.9375,710929.0,711436.5,452452.78125,711335.0,711362.625,276235.75,712078.25,0.0
1772569217.259087,257739.046875,710924.375,711432.0,452324.3125,711330.4375,711358.0,276183.25,712073.75,0.0
1772569217.2591355,257739.765625,710922.8125,711430.3125,452193.96875,711328.8125,711356.5625,276116.84375,712072.8125,0.0
1772569217.2605195,257728.953125,710927.8125,711435.5625,452185.1875,711333.8125,711361.625,276119.875,712077.875,0.0
1772569217.264464,257723.40625,710933.1875,711441.125,452228.90625,711339.1875,711366.9375,276169.59375,712082.8125,0.0
1772569217.2733269,257728.59375,710930.25,711437.9375,452143.0,711336.1875,711363.4375,276146.0625,712079.75,0.0
1772569217.2762933,257722.6875,710925.5,711433.375,451976.4375,711331.25,711358.6875,276060.6875,712074.9375,0.0
1772569217.2763274,257723.5,710929.25,711437.375,451957.5625,711335.0625,711362.75,276058.53125,712078.875,0.0
1772569217.2869601,257720.09375,710932.125,711439.875,451998.875,711337.625,711365.3125,276103.25,712082.0,0.0
1772569217.2938588,257726.0,710931.0,711438.6875,451949.4375,711336.8125,711364.4375,276098.25,712080.8125,0.0
1772569217.2938924,257735.03125,710926.4375,711434.25,451768.46875,711332.3125,711360.0625,276005.53125,712076.25,0.0
1772569217.295853,257734.671875,710928.0,711435.875,451729.59375,711333.9375,711361.625,275989.34375,712077.5,0.0
1772569217.29824,257726.359375,710928.375,711436.0625,451751.65625,711334.125,711361.5625,276019.375,712077.625,0.0
1772569217.3043604,257726.0,710928.625,711436.5,451732.53125,711334.5625,711362.375,276035.21875,712078.25,0.0
1772569217.311278,257721.078125,710922.1875,711430.375,451543.53125,711328.0,711355.625,275939.375,712072.1875,0.0
1772569217.311312,257721.796875,710925.6875,711433.625,451489.96875,711331.625,711359.25,275917.1875,712075.3125,0.0
1772569217.3132493,257716.609375,710928.625,711436.75,451516.53125,711334.8125,711362.5625,275955.1875,712078.6875,0.0
1772569217.3197012,257711.6875,710931.3125,711439.1875,451533.5,711337.25,711365.3125,275994.875,712081.125,0.0
1772569217.322364,257714.109375,710925.0625,711432.25,451356.5625,711330.4375,711358.6875,275910.75,712074.5625,0.0
1772569217.3223968,257716.4375,710922.1875,711430.25,451268.875,711327.875,711355.8125,275868.71875,712072.0625,0.0
1772569217.330536,257714.46875,710926.875,711434.875,451285.75,711332.9375,711360.6875,275898.59375,712076.625,0.0
1772569217.334572,257716.78125,710933.3125,711441.3125,451332.96875,711339.375,711367.1875,275959.3125,712083.0625,0.0
1772569217.3413165,257715.71875,710928.1875,711436.1875,451180.90625,711334.375,711362.4375,275893.0625,712078.125,0.0
1772569217.341349,257721.96875,710927.5,711435.5625,451078.6875,711333.3125,711361.375,275843.59375,712077.375,0.0
1772569217.3469543,257711.6875,710928.9375,711436.9375,451079.78125,711335.0625,711362.75,275855.21875,712078.6875,0.0
1772569217.355972,257694.4375,710929.375,711437.375,451121.34375,711335.1875,711362.75,275900.8125,712079.25,0.0
1772569217.3588593,257692.46875,710923.3125,711431.375,451001.28125,711329.25,711356.9375,275848.53125,712073.0625,0.0
1772569217.3588943,257700.0625,710922.0625,711430.125,450868.5,711327.875,711355.5625,275779.6875,712071.875,0.0
1772569217.3607185,257702.84375,710927.6875,711435.3125,450872.96875,711333.125,711361.125,275791.5625,712077.0625,0.0
1772569217.371766,257700.25,710933.5,711440.6875,450924.28125,711338.875,711366.5625,275842.71875,712082.625,0.0
1772569217.374926,257699.71875,710930.4375,711438.25,450851.25,711336.375,711363.875,275822.5,712079.9375,0.0
1772569217.3749604,257700.96875,710924.8125,711432.5625,450686.28125,711330.5625,711358.6875,275733.71875,712074.3125,0.0
1772569217.3769503,257698.28125,710926.3125,711434.25,450667.4375,711332.0625,711359.9375,275726.5625,712075.75,0.0
1772569217.3855207,257700.34375,710932.5,711440.5,450715.96875,711338.375,711366.3125,275777.90625,712082.0,0.0
1772569217.4129307,257693.984375,710929.1875,711436.6875,450671.28125,711334.625,711363.0,275776.8125,712078.625,0.0
1772569217.4129608,257696.671875,710923.125,711430.75,450490.84375,711328.75,711356.625,275686.0625,712072.625,0.0
1772569217.412969,257698.015625,710922.5625,711430.6875,450449.1875,711328.75,711356.1875,275671.9375,712072.3125,0.0
1772569217.415719,257691.21875,710925.6875,711433.625,450479.6875,711332.125,711359.6875,275716.75,712075.9375,0.0
1772569217.4198012,257695.59375,710928.0,711435.75,450478.78125,711334.125,711361.625,275752.21875,712078.0625,0.0
1772569217.419832,257696.40625,710922.5625,711430.25,450291.90625,711328.3125,711355.9375,275663.90625,712072.3125,0.0
1772569217.4198406,257691.390625,710924.375,711432.0,450233.28125,711330.25,711357.5625,275637.34375,712073.9375,0.0
1772569217.419847,257695.15625,710930.1875,711437.9375,450260.1875,711336.0625,711363.25,275670.96875,712079.5625,0.0
1772569217.4219155,257693.1875,710932.0625,711439.8125,450277.0,711337.9375,711365.6875,275702.34375,712081.5625,0.0
1772569217.425167,257699.625,710928.375,711436.75,450107.1875,711334.3125,711362.4375,275622.6875,712078.4375,0.0
1772569217.4252284,257703.375,710930.1875,711438.5625,450023.6875,711336.1875,711363.6875,275586.21875,712080.1875,0.0
1772569217.4268217,257694.53125,710930.1875,711438.8125,450031.125,711336.625,711364.0625,275606.15625,712080.0,0.0
1772569217.4405115,257689.515625,710932.9375,711441.75,450072.25,711339.625,711367.125,275659.25,712083.1875,0.0
1772569217.4436376,257691.671875,710929.125,711437.4375,449919.34375,711335.1875,711362.8125,275591.3125,712079.0625,0.0
1772569217.443664,257694.4375,710927.9375,711435.9375,449791.40625,711333.125,711361.125,275523.09375,712077.6875,0.0
1772569217.450056,257689.15625,710931.75,711439.875,449788.09375,711337.25,711365.25,275538.375,712081.375,0.0
1772569217.4500885,257688.625,710936.5,711445.25,449832.71875,711342.4375,711370.3125,275601.59375,712086.5625,0.0
1772569217.4720097,257688.53125,710931.4375,711439.9375,449703.34375,711337.4375,711365.25,275555.71875,712081.5625,0.0
1772569217.475416,257689.34375,710928.5,711436.6875,449548.0625,711334.3125,711362.0,275482.40625,712077.6875,0.0
1772569217.475452,257682.453125,710928.625,711436.75,449525.15625,711334.3125,711362.0,275482.75,712077.6875,0.0
1772569217.4754684,257683.265625,710935.4375,711443.75,449569.6875,711341.25,711369.0,275540.96875,712085.125,0.0
1772569217.4782975,257677.625,710932.3125,711440.6875,449483.59375,711338.375,711365.75,275517.53125,712082.25,0.0
1772569217.4814558,257681.203125,710928.5,711437.125,449299.9375,711334.4375,711362.0625,275423.84375,712078.5,0.0
1772569217.481509,257677.53125,710930.4375,711439.4375,449262.125,711336.5,711364.3125,275410.96875,712080.375,0.0
1772569217.483092,257690.0625,710938.8125,711448.0,449312.375,711344.6875,711372.75,275473.0,712088.5,0.0
1772569217.4856856,257685.765625,710936.3125,711444.6875,449270.1875,711342.0625,711369.6875,275473.46875,712086.0,0.0
1772569217.492609,257686.84375,710929.75,711438.0,449079.75,711335.25,711363.0,275374.84375,712079.5,0.0
1772569217.4926434,257681.921875,710929.25,711438.25,449023.21875,711335.1875,711363.0,275343.03125,712079.5,0.0
1772569217.5031292,257682.1875,710935.1875,711444.25,449052.03125,711341.0625,711368.5,275377.0,712085.0625,0.0
1772569217.5060723,257674.671875,710933.3125,711441.875,449046.46875,711338.875,711366.5625,275394.59375,712082.625,0.0
1772569217.5060976,257673.6875,710926.5,711435.0625,448861.3125,711332.125,711359.9375,275301.96875,712076.0,0.0
1772569217.5081792,257669.9375,710926.3125,711434.9375,448794.09375,711332.125,711359.5625,275270.34375,712076.125,0.0
1772569217.5168183,257664.9375,710931.3125,711439.9375,448816.0,711337.125,711364.75,275301.1875,712081.3125,0.0
1772569217.5194728,257660.109375,710933.125,711441.9375,448838.4375,711339.375,711367.0,275336.21875,712083.625,0.0
1772569217.5236564,257666.265625,710929.125,711437.75,448677.6875,711335.0,711362.5625,275259.40625,712079.25,0.0
1772569217.5236895,257667.796875,710930.625,711439.3125,448589.875,711336.5,711364.0625,275215.6875,712080.0,0.0
1772569217.5518212,257663.6875,710934.1875,711442.9375,448599.09375,711340.125,711367.875,275235.90625,712083.9375,0.0
1772569217.555048,257655.71875,710935.5625,711444.25,448631.4375,711341.25,711369.25,275277.46875,712085.3125,0.0
1772569217.555082,257655.640625,710927.125,711435.3125,448480.4375,711332.4375,711360.5625,275207.21875,712076.5625,0.0
1772569217.5569904,257663.046875,710925.5,711433.625,448356.625,711330.5625,711358.8125,275146.21875,712074.75,0.0
1772569217.55926,257662.25,710930.8125,711439.4375,448359.5625,711336.375,711364.25,275163.21875,712079.9375,0.0
1772569217.5622122,257652.5,710931.625,711440.3125,448391.125,711337.4375,711364.75,275204.09375,712081.125,0.0
1772569217.5644789,257647.5,710928.3125,711437.0,448265.25,711333.8125,711361.5625,275152.21875,712077.8125,0.0
1772569217.5694818,257646.15625,710926.125,711434.625,448099.125,711331.3125,711359.4375,275070.9375,712075.3125,0.0
1772569217.5720756,257651.609375,710929.1875,711437.3125,448079.90625,711334.3125,711362.5625,275079.96875,712078.3125,0.0
1772569217.5744584,257643.5625,710929.8125,711438.0625,448108.34375,711335.4375,711363.25,275123.96875,712079.25,0.0
1772569217.5775511,257645.890625,710928.75,711437.1875,448026.96875,711334.5625,711362.0,275103.0625,712078.4375,0.0
1772569217.5775857,257649.28125,710926.9375,711435.75,447844.59375,711332.75,711360.3125,275012.5625,712076.4375,0.0
1772569217.5793052,257643.109375,710926.25,711435.5625,447802.375,711332.25,711359.875,274997.625,712076.375,0.0
1772569217.583269,257638.109375,710929.1875,711438.0,447831.71875,711334.75,711362.625,275039.3125,712079.25,0.0
1772569217.5921242,257640.875,710930.0625,711438.6875,447794.34375,711335.1875,711363.0,275047.15625,712079.6875,0.0
1772569217.5975983,257647.140625,710925.3125,711434.0,447604.625,711330.5625,711358.5,274960.96875,712074.875,0.0
1772569217.5976331,257644.90625,710925.6875,711434.25,447548.375,711331.4375,711359.3125,274943.0,712075.5,0.0
1772569217.5992496,257638.109375,710927.3125,711435.5625,447556.96875,711332.75,711360.5625,274971.96875,712076.8125,0.0
1772569217.6030598,257640.796875,710930.25,711438.5625,447553.5625,711335.6875,711363.375,275004.15625,712079.6875,0.0
1772569217.6123283,257638.734375,710924.8125,711433.5,447362.84375,711330.6875,711358.4375,274913.5,712074.5625,0.0
1772569217.612383,257632.390625,710924.875,711433.25,447272.28125,711330.5625,711358.1875,274866.65625,712074.5,0.0
1772569217.6202939,257626.125,710927.0625,711435.875,447274.875,711332.6875,711360.3125,274881.125,712076.875,0.0
1772569217.6203473,257629.4375,710931.5,711440.25,447303.3125,711337.125,711365.125,274921.5625,712081.375,0.0
1772569217.6217303,257636.328125,710927.75,711436.5,447130.40625,711333.5,711361.0,274840.90625,712077.5,0.0
1772569217.6243515,257631.40625,710927.125,711435.9375,447011.03125,711332.75,711360.1875,274783.5,712076.8125,0.0
1772569217.630716,257625.859375,710928.5625,711437.4375,446999.25,711334.1875,711362.0,274801.9375,712078.125,0.0
1772569217.63484,257627.46875,710935.375,711444.5,447032.84375,711341.0,711368.875,274864.25,712085.1875,0.0
1772569217.6348689,257622.015625,710928.9375,711438.0625,446869.0625,711334.4375,711362.25,274799.96875,712078.25,0.0
1772569217.645733,257623.0,710925.0625,711434.0,446723.5,711330.25,711358.25,274737.90625,712074.6875,0.0
1772569217.6486645,257627.203125,710930.625,711439.5,446713.65625,711335.6875,711363.6875,274757.125,712080.5,0.0
1772569217.6487005,257624.78125,710932.6875,711441.5625,446744.96875,711338.25,711366.125,274804.0625,712082.625,0.0
1772569217.650744,257625.234375,710924.5625,711433.5,446620.6875,711330.5625,711358.25,274754.625,712074.6875,0.0
1772569217.6595647,257624.078125,710919.0625,711427.6875,446442.84375,711324.875,711352.4375,274666.84375,712069.0625,0.0
1772569217.661822,257628.28125,710925.875,711434.5,446417.375,711331.1875,711359.0625,274676.5,712075.5625,0.0
1772569217.6654625,257623.984375,710929.875,711439.0,446444.375,711335.625,711363.4375,274726.09375,712079.6875,0.0
1772569217.6752157,257620.9375,710928.5,711437.8125,446362.3125,711334.1875,711361.75,274711.8125,712078.625,0.0
1772569217.675268,257623.09375,710922.0625,711431.1875,446165.25,711327.9375,711355.3125,274620.15625,712071.6875,0.0
1772569217.6767447,257624.875,710925.0,711434.25,446125.0,711330.875,711358.3125,274620.15625,712074.5625,0.0
1772569217.683301,257624.96875,710930.25,711439.25,446151.03125,711335.625,711363.1875,274665.84375,712079.9375,0.0
1772569217.692542,257614.6875,710927.125,711436.1875,446105.625,711332.9375,711360.5,274664.40625,712077.25,0.0
1772569217.6925745,257617.8125,710922.125,711431.0,445911.34375,711327.5625,711355.125,274568.03125,712072.3125,0.0
1772569217.694533,257615.125,710923.9375,711432.8125,445846.0625,711329.125,711356.75,274538.4375,712073.5,0.0
1772569217.697972,257616.203125,710930.1875,711438.6875,445864.9375,711335.375,711362.75,274574.125,712079.5,0.0
1772569217.7048545,257616.921875,710932.5,711441.5625,445867.34375,711337.9375,711365.125,274608.90625,712082.1875,0.0
1772569217.7048855,257615.578125,710924.6875,711434.0,445672.71875,711330.0625,711357.625,274519.03125,712074.3125,0.0
1772569217.7129664,257610.9375,710925.9375,711435.25,445579.28125,711331.3125,711358.875,274480.40625,712075.3125,0.0
1772569217.717342,257606.90625,710928.9375,711438.0,445587.21875,711334.5625,711361.8125,274514.5625,712078.4375,0.0
1772569217.71736,257607.890625,710932.375,711441.125,445613.96875,711337.5,711364.9375,274568.3125,712082.0,0.0
1772569217.726081,257606.015625,710926.25,711435.0625,445436.21875,711331.25,711359.25,274491.9375,712075.9375,0.0
1772569217.7261004,257597.875,710925.25,711434.0,445312.40625,711330.375,711358.25,274431.5,712075.1875,0.0
1772569217.727962,257599.046875,710930.1875,711439.0,445309.28125,711335.375,711363.1875,274450.125,712079.75,0.0
1772569217.730467,257597.96875,710932.25,711440.9375,445341.4375,711337.0625,711365.25,274499.0,712081.5625,0.0
1772569217.7393022,257609.953125,710928.0,711436.6875,445204.3125,711332.75,711360.75,274449.5625,712077.5,0.0
1772569217.7437944,257618.703125,710927.125,711436.0625,445057.5,711332.5,711360.0625,274381.90625,712077.0625,0.0
1772569217.743832,257611.5625,710930.4375,711439.3125,445036.75,711335.875,711363.375,274388.96875,712080.1875,0.0
1772569217.746778,257606.8125,710935.8125,711444.375,445079.75,711340.8125,711368.5,274447.6875,712084.9375,0.0
1772569217.7557292,257605.203125,710932.25,711441.125,444978.625,711337.4375,711365.375,274414.0,712081.75,0.0
1772569217.7586944,257602.34375,710923.1875,711432.1875,444792.21875,711328.5,711356.1875,274310.0,712073.125,0.0
1772569217.7587411,257599.046875,710925.1875,711433.8125,444767.90625,711330.375,711358.0,274306.15625,712074.75,0.0
1772569217.7667742,257599.3125,710931.4375,711440.3125,444812.4375,711337.125,711364.75,274359.1875,712081.5625,0.0
1772569217.769384,257594.75,710929.5625,711438.875,444746.0,711335.0625,711362.8125,274350.0625,712079.5,0.0
1772569217.771992,257601.453125,710926.125,711435.75,444562.09375,711331.6875,711359.3125,274269.25,712075.75,0.0
1772569217.7807372,257601.359375,710929.4375,711438.625,444519.1875,711334.9375,711362.8125,274263.53125,712079.3125,0.0
1772569217.7838476,257599.3125,710932.0625,711441.1875,444544.84375,711337.5,711365.375,274307.25,712081.8125,0.0
1772569217.7838798,257602.796875,710933.0,711442.5,444524.4375,711338.5625,711366.3125,274326.1875,712082.875,0.0
1772569217.7943368,257603.0625,710925.3125,711435.125,444332.9375,711331.1875,711358.625,274230.875,712075.5,0.0
1772569217.7975547,257604.140625,710926.25,711436.1875,444266.34375,711332.0625,711359.4375,274199.40625,712076.1875,0.0
1772569217.797588,257606.1875,710932.5625,711442.0,444285.5625,711338.125,711365.875,274232.03125,712082.375,0.0
1772569217.8018148,257609.140625,710936.875,711446.25,444297.0,711342.3125,711370.0625,274268.53125,712086.625,0.0
1772569217.8054948,257616.921875,710929.25,711438.625,444107.5625,711334.625,711362.4375,274178.75,712078.4375,0.0
1772569217.8092,257613.25,710928.5,711437.75,444005.8125,711333.6875,711361.75,274130.84375,712077.8125,0.0
1772569217.8186057,257607.078125,710932.5,711441.6875,444010.71875,711337.875,711365.5625,274159.0,712081.8125,0.0
1772569217.8186257,257594.03125,710933.5,711443.25,444036.5625,711339.5625,711366.75,274203.0625,712083.3125,0.0
1772569217.820433,257599.671875,710931.875,711441.875,443882.15625,711337.875,711365.6875,274140.21875,712081.8125,0.0
1772569217.8310363,257605.125,710928.1875,711438.1875,443756.8125,711334.0,711361.75,274077.625,712078.25,0.0
1772569217.8310535,257596.71875,710930.0,711439.4375,443740.96875,711335.625,711363.4375,274081.65625,712079.75,0.0
1772569217.8372693,257584.28125,710932.25,711441.9375,443773.6875,711338.125,711365.875,274126.375,712082.375,0.0
1772569217.8372843,257581.875,710926.3125,711436.5,443631.90625,711332.25,711360.0625,274065.84375,712077.0,0.0
1772569217.851028,257588.484375,710925.1875,711435.125,443489.75,711331.0,711358.4375,274001.375,712075.125,0.0
1772569217.8510432,257585.8125,710932.9375,711442.5,443485.375,711338.5625,711366.3125,274019.4375,712082.25,0.0
1772569217.8535953,257574.265625,710937.25,711446.9375,443526.75,711342.5,711370.5625,274071.28125,712086.9375,0.0
1772569217.8536105,257574.453125,710931.75,711441.375,443428.21875,711337.5,711365.6875,274036.59375,712081.625,0.0
1772569217.859202,257583.75,710930.6875,711440.25,443269.34375,711336.625,711364.5,273962.125,712080.8125,0.0
1772569217.8660235,257570.875,710934.625,711444.5,443242.90625,711340.5625,711368.375,273959.4375,712084.5625,0.0
1772569217.8660407,257562.203125,710936.3125,711446.5,443272.75,711342.75,711370.4375,273999.5,712086.625,0.0
1772569217.880376,257561.671875,710933.3125,711443.5625,443209.53125,711339.3125,711367.25,273987.15625,712083.3125,0.0
1772569217.8803911,257569.265625,710929.4375,711439.4375,443024.1875,711335.0,711363.1875,273900.71875,712079.3125,0.0
1772569217.8803988,257572.9375,710930.6875,711440.6875,442982.375,711336.625,711364.4375,273891.5,712080.6875,0.0
1772569217.8849385,257574.90625,710938.6875,711448.75,443022.5,711344.5625,711372.375,273945.75,712088.4375,0.0
1772569217.8849673,257563.71875,710934.625,711444.6875,442987.09375,711340.25,711368.25,273943.34375,712084.0625,0.0
1772569217.8907144,257553.359375,710923.125,711433.1875,442781.09375,711328.625,711356.375,273833.1875,712072.625,0.0
1772569217.8950813,257550.140625,710926.25,711436.3125,442723.53125,711331.6875,711359.5625,273811.46875,712076.125,0.0
1772569217.895111,257564.96875,710938.0625,711448.125,442767.96875,711343.25,711371.375,273868.25,712087.8125,0.0
1772569217.898232,257557.28125,710936.875,711447.0,442773.3125,711342.125,711370.0625,273897.65625,712086.5625,0.0
1772569217.912321,257540.75,710923.0,711433.0625,442576.0,711328.3125,711356.125,273796.0,712072.625,0.0
1772569217.9230516,257555.9375,710929.25,711439.0,442515.5625,711334.375,711362.1875,273782.25,712078.875,0.0
1772569217.923097,257552.453125,710931.625,711441.6875,442521.125,711337.0625,711364.9375,273798.4375,712081.3125,0.0
1772569217.9231164,257547.984375,710930.875,711440.75,442545.78125,711336.4375,711364.125,273829.71875,712080.6875,0.0
1772569217.9261656,257545.21875,710921.9375,711431.75,442385.65625,711327.5625,711355.3125,273748.8125,712071.4375,0.0
1772569217.9262004,257551.390625,710924.8125,711434.5,442276.59375,711330.375,711358.4375,273695.25,712074.5,0.0
1772569217.932188,257560.6875,710933.5,711443.1875,442294.90625,711339.125,711366.5625,273727.0625,712083.0625,0.0
1772569217.9342673,257549.953125,710936.6875,711446.75,442332.625,711342.25,711370.0625,273774.28125,712086.1875,0.0
1772569217.9382212,257538.25,710930.6875,711440.9375,442201.46875,711336.375,711364.0,273718.5,712080.375,0.0
1772569217.950052,257539.671875,710926.6875,711436.75,442053.34375,711332.125,711359.9375,273642.84375,712076.125,0.0
1772569217.950087,257542.265625,710930.0625,711439.9375,442047.78125,711335.1875,711363.0625,273655.1875,712079.3125,0.0
1772569217.9525788,257547.890625,710940.5625,711450.5,442113.15625,711345.625,711373.1875,273731.09375,712089.75,0.0
1772569217.952613,257549.421875,710939.625,711449.375,442034.65625,711344.9375,711372.3125,273713.84375,712089.0,0.0
1772569217.9583328,257552.640625,710935.6875,711445.9375,441869.6875,711341.375,711368.8125,273635.625,712085.375,0.0
1772569217.9649563,257544.59375,710930.1875,711440.6875,441821.21875,711336.25,711363.8125,273609.40625,712080.375,0.0
1772569217.9649875,257536.0,710928.375,711438.5625,441842.96875,711334.375,711362.1875,273638.90625,712078.25,0.0
1772569217.9669871,257538.421875,710928.9375,711439.1875,441803.34375,711335.0,711362.4375,273640.0,712078.875,0.0
1772569217.9755127,257543.515625,710926.0625,711436.3125,441626.59375,711331.875,711359.3125,273553.8125,712075.5625,0.0
1772569217.9800465,257553.0,710927.125,711437.3125,441585.375,711332.75,711360.5,273545.5,712076.375,0.0
1772569217.98008,257544.140625,710929.4375,711439.8125,441607.8125,711335.1875,711362.625,273583.40625,712079.0625,0.0
1772569217.9882412,257549.5,710934.0,711444.25,441613.375,711339.625,711367.1875,273620.5,712083.625,0.0
1772569217.9907486,257550.140625,710929.75,711439.875,441438.21875,711335.1875,711362.875,273538.0625,712079.3125,0.0
1772569217.9945662,257552.8125,710934.1875,711443.875,441387.78125,711339.5625,711367.125,273518.21875,712083.625,0.0
1772569218.0058296,257554.78125,710938.5,711448.5625,441415.3125,711344.375,711371.9375,273548.0,712087.75,0.0
1772569218.0086596,257539.765625,710935.1875,711445.4375,441423.5625,711340.625,711368.5,273568.75,712084.75,0.0
1772569218.0086927,257530.46875,710925.5,711436.1875,441239.375,711331.4375,711358.9375,273475.03125,712075.375,0.0
1772569218.0107408,257535.296875,710928.125,711438.4375,441160.96875,711333.9375,711361.375,273445.71875,712077.5,0.0
1772569218.0133865,257540.921875,710931.625,711442.375,441181.96875,711337.875,711365.25,273481.5625,712081.375,0.0
1772569218.0219667,257536.90625,710933.5625,711444.1875,441210.59375,711339.5,711366.9375,273522.25,712083.25,0.0
1772569218.026216,257536.90625,710929.75,711440.3125,441063.6875,711335.5625,711363.1875,273459.125,712078.875,0.0
1772569218.0262475,257548.796875,710929.125,711439.875,440952.65625,711334.8125,711362.625,273410.84375,712078.625,0.0
1772569218.0332522,257550.484375,710930.4375,711440.75,440957.65625,711336.375,711363.875,273431.9375,712079.9375,0.0
1772569218.0357413,257542.09375,710935.5625,711445.875,441007.1875,711341.4375,711369.125,273488.28125,712084.9375,0.0
1772569218.038021,257530.015625,710930.1875,711440.5625,440888.28125,711335.8125,711363.5,273437.84375,712079.6875,0.0
1772569218.0475516,257530.640625,710925.5,711435.9375,440737.34375,711331.5,711358.8125,273354.34375,712075.0,0.0
1772569218.0475843,257531.453125,710929.1875,711439.8125,440730.1875,711335.1875,711362.75,273361.75,712079.0625,0.0
1772569218.0493236,257523.84375,710932.75,711443.375,440769.28125,711338.5625,711366.3125,273412.90625,712082.25,0.0
1772569218.0532384,257521.609375,710930.6875,711441.3125,440692.28125,711336.5,711364.125,273398.5,712079.875,0.0
1772569218.0620968,257522.59375,710926.5,711437.375,440524.90625,711332.3125,711360.125,273318.9375,712076.1875,0.0
1772569218.066095,257519.640625,710932.6875,711443.375,440506.0625,711338.5,711366.375,273322.78125,712082.6875,0.0
1772569218.066125,257512.40625,710935.4375,711446.125,440536.90625,711341.0625,711368.4375,273362.90625,712085.1875,0.0
1772569218.068233,257516.34375,710931.3125,711442.5,440497.65625,711337.5,711364.875,273367.84375,712081.375,0.0
1772569218.0769887,257516.609375,710924.1875,711435.75,440314.46875,711330.25,711358.0,273278.34375,712074.0625,0.0
1772569218.08634,257520.1875,710926.4375,711437.9375,440276.625,711332.5625,711360.1875,273273.0625,712076.625,0.0
1772569218.0863912,257513.203125,710926.6875,711437.8125,440292.28125,711332.875,711360.1875,273309.0,712076.75,0.0
1772569218.089002,257508.828125,710929.0,711439.8125,440293.34375,711335.1875,711362.5625,273345.125,712079.25,0.0
1772569218.0890367,257509.625,710923.5625,711434.0625,440114.625,711329.625,711357.1875,273255.375,712073.625,0.0
1772569218.0907528,257510.796875,710925.6875,711437.125,440065.8125,711332.0625,711359.75,273230.0625,712076.125,0.0
1772569218.0994992,257504.984375,710933.5625,711445.3125,440098.1875,711340.125,711367.625,273263.59375,712084.25,0.0
1772569218.1036828,257497.390625,710936.25,711447.625,440117.40625,711342.4375,711369.6875,273293.375,712086.4375,0.0
1772569218.1037133,257501.578125,710925.25,711436.125,439945.75,711331.0,711358.1875,273203.6875,712075.125,0.0
1772569218.1122408,257511.15625,710926.5,711437.5625,439867.875,711332.25,711359.6875,273165.6875,712076.5625,0.0
1772569218.1150608,257518.390625,710935.5625,711447.1875,439900.5,711342.0625,711369.125,273202.625,712085.8125,0.0
1772569218.11509,257513.03125,710935.625,711446.875,439934.03125,711341.6875,711368.625,273238.09375,712085.75,0.0
1772569218.1170743,257510.609375,710928.8125,711439.625,439794.8125,711334.5625,711361.625,273171.3125,712078.75,0.0
1772569218.130698,257504.265625,710926.125,711437.125,439674.9375,711331.9375,711359.4375,273105.53125,712076.1875,0.0
1772569218.1350572,257501.140625,710929.8125,711440.5625,439683.875,711335.1875,711363.1875,273125.71875,712079.5,0.0
1772569218.1351333,257498.015625,710936.8125,711447.9375,439745.28125,711342.75,711370.125,273191.4375,712086.8125,0.0
1772569218.1396165,257494.796875,710933.1875,711444.0,439643.46875,711339.1875,711366.3125,273153.15625,712083.25,0.0
1772569218.1417885,257488.796875,710927.125,711438.5625,439495.3125,711333.5,711360.5,273069.65625,712077.25,0.0
1772569218.1444874,257481.203125,710928.8125,711440.125,439487.875,711335.25,711361.8125,273068.6875,712078.6875,0.0
1772569218.1507287,257476.109375,710931.625,711442.5625,439528.65625,711337.25,711364.625,273112.21875,712081.375,0.0
1772569218.155157,257482.625,710931.4375,711442.1875,439472.78125,711336.625,711364.25,273106.6875,712081.1875,0.0
1772569218.155282,257489.515625,710927.125,711438.0625,439311.125,711332.5,711360.1875,273025.78125,712077.0,0.0
1772569218.188376,257478.15625,710928.375,711439.8125,439287.4375,711334.375,711362.0625,273016.375,712078.6875,0.0
1772569218.1919537,257481.296875,710933.125,711444.4375,439339.75,711338.5625,711366.5625,273069.75,712083.3125,0.0
1772569218.1919851,257487.28125,710932.5,711443.75,439317.65625,711337.9375,711366.0,273080.125,712082.5625,0.0
1772569218.1919932,257492.28125,710925.0625,711436.125,439140.53125,711330.6875,711358.5,272987.5,712075.1875,0.0
1772569218.1945035,257491.296875,710928.1875,711439.4375,439112.375,711333.5,711361.3125,272973.5625,712078.25,0.0
1772569218.1969657,257493.53125,710935.4375,711446.5,439159.125,711340.5625,711368.25,273019.34375,712085.1875,0.0
1772569218.199268,257482.09375,710932.5,711443.5625,439160.375,711337.875,711365.5625,273037.9375,712082.1875,0.0
1772569218.2019677,257485.578125,710929.625,711440.6875,438991.5,711335.1875,711362.75,272950.21875,712079.5,0.0
1772569218.2043064,257492.46875,710932.25,711443.375,438942.5,711338.3125,711365.6875,272928.84375,712082.0625,0.0
1772569218.206997,257483.796875,710935.875,711446.75,438976.03125,711341.625,711369.25,272966.5,712085.75,0.0
1772569218.209434,257472.796875,710935.875,711446.9375,439006.4375,711341.6875,711369.4375,273006.8125,712086.0,0.0
1772569218.21181,257473.421875,710928.8125,711439.3125,438848.90625,711333.8125,711361.8125,272929.84375,712078.4375,0.0
1772569218.2150447,257478.96875,710928.5625,711439.1875,438765.9375,711333.8125,711361.75,272884.0625,712078.125,0.0
1772569218.2150788,257484.6875,710935.8125,711447.0,438797.3125,711342.0625,711369.125,272915.96875,712086.1875,0.0
1772569218.2170224,257482.984375,710941.1875,711452.125,438851.84375,711347.3125,711374.5,272970.0625,712091.5,0.0
1772569218.2262352,257478.515625,710932.3125,711443.1875,438714.53125,711337.6875,711365.6875,272899.875,712082.25,0.0
1772569218.2262611,257474.9375,710928.75,711439.8125,438595.0625,711333.9375,711362.25,272829.0625,712078.6875,0.0
1772569218.2283144,257477.625,710933.125,711444.1875,438612.25,711338.25,711366.5,272846.9375,712082.875,0.0
1772569218.2369719,257472.796875,710937.75,711448.8125,438673.75,711343.0625,711371.0625,272906.78125,712087.8125,0.0
1772569218.2410853,257470.5625,710933.375,711444.5,438581.75,711339.3125,711366.625,272873.96875,712083.9375,0.0
1772569218.2411177,257476.90625,710929.75,711440.5625,438443.25,711335.5625,711363.1875,272800.28125,712080.0,0.0
1772569218.2468517,257479.59375,710933.75,711444.875,438453.625,711339.375,711367.4375,272817.09375,712084.25,0.0
1772569218.2494931,257473.875,710938.3125,711449.8125,438513.4375,711344.1875,711371.9375,272873.78125,712088.6875,0.0
1772569218.2590024,257465.828125,710936.0625,711447.0,438454.53125,711341.5,711368.6875,272855.34375,712085.75,0.0
1772569218.259064,257483.34375,710934.9375,711446.0625,438307.28125,711340.375,711368.0,272780.875,712084.75,0.0
1772569218.260471,257490.234375,710935.4375,711446.5625,438292.875,711340.8125,711368.4375,272773.1875,712085.5,0.0
1772569218.264522,257501.578125,710943.6875,711455.0625,438354.46875,711349.5,711376.875,272832.46875,712093.875,0.0
1772569218.2736635,257487.015625,710941.6875,711452.75,438328.625,711347.0625,711374.6875,272834.25,712091.5625,0.0
1772569218.2737012,257480.390625,710934.625,711445.875,438149.71875,711340.125,711367.4375,272738.78125,712084.25,0.0
1772569218.275782,257478.15625,710936.8125,711448.0,438118.71875,711342.25,711369.625,272728.3125,712086.3125,0.0
1772569218.2869983,257460.1875,710938.5625,711449.8125,438152.40625,711343.9375,711371.5,272765.78125,712088.5,0.0
1772569218.289882,257440.78125,710937.5,711448.75,438160.09375,711343.0625,711370.5625,272789.09375,712087.375,0.0
1772569218.289914,257440.15625,710934.4375,711445.625,437996.9375,711339.9375,711367.625,272706.59375,712084.3125,0.0
1772569218.2920012,257446.875,710937.5,711448.8125,437941.59375,711343.5,711370.75,272679.03125,712087.625,0.0
1772569218.3008485,257440.609375,710939.625,711451.0625,437964.9375,711345.9375,711373.1875,272704.09375,712089.75,0.0
1772569218.3038497,257440.078125,710940.4375,711451.5,437993.90625,711346.375,711373.4375,272744.75,712090.3125,0.0
1772569218.3038812,257450.625,710934.0,711445.125,437836.90625,711340.125,711367.4375,272670.71875,712084.5,0.0
1772569218.31198,257456.703125,710934.625,711446.125,437752.9375,711340.4375,711367.875,272630.59375,712084.75,0.0
1772569218.316105,257454.015625,710941.8125,711452.5625,437778.0625,711346.875,711374.3125,272660.71875,712091.5,0.0
1772569218.316136,257448.125,710947.0,711458.5625,437830.28125,711352.6875,711380.125,272716.96875,712097.0,0.0
1772569218.321818,257450.796875,710941.25,711452.8125,437704.65625,711347.1875,711374.9375,272662.5,712091.125,0.0
1772569218.3289557,257454.015625,710937.4375,711449.0625,437575.65625,711343.125,711371.0625,272589.0,712087.4375,0.0
1772569218.3289888,257451.96875,710939.375,711450.9375,437569.46875,711344.9375,711372.75,272587.3125,712089.25,0.0
1772569218.3368437,257455.265625,710947.25,711458.375,437634.75,711352.625,711380.0,272649.0,712096.6875,0.0
1772569218.341329,257455.453125,710944.3125,711455.25,437548.21875,711349.5,711376.875,272615.84375,712093.8125,0.0
1772569218.341366,257443.65625,710937.5625,711449.0,437387.09375,711343.3125,711370.5,272524.5625,712087.5625,0.0
1772569218.3532116,257435.6875,710938.0625,711449.4375,437376.90625,711343.6875,711371.1875,272524.09375,712088.25,0.0
1772569218.3570035,257442.84375,710945.625,711456.75,437438.5,711350.8125,711378.625,272587.84375,712095.5625,0.0
1772569218.3570364,257447.40625,710945.0,711456.25,437388.875,711350.0,711377.75,272584.09375,712095.125,0.0
1772569218.357046,257455.546875,710941.4375,711452.375,437220.15625,711346.375,711373.875,272498.09375,712091.1875,0.0
1772569218.3593016,257458.484375,710944.375,711454.8125,437198.25,711349.375,711377.0,272494.40625,712093.8125,0.0
1772569218.3623955,257463.859375,710952.3125,711463.125,437256.03125,711357.625,711385.3125,272557.28125,712101.875,0.0
1772569218.3708453,257454.375,710951.0,711462.875,437238.21875,711356.8125,711384.625,272570.3125,712100.625,0.0
1772569218.3732607,257453.390625,710944.125,711456.0,437058.53125,711349.75,711377.625,272473.40625,712094.1875,0.0
1772569218.375857,257436.671875,710941.8125,711453.3125,437004.59375,711347.5,711375.25,272436.03125,712091.8125,0.0
1772569218.384536,257423.09375,710941.625,711453.1875,437024.625,711347.6875,711375.4375,272454.09375,712092.0,0.0
1772569218.3888867,257420.40625,710943.0625,711454.5625,437043.59375,711348.5625,711376.3125,272483.15625,712093.375,0.0
1772569218.3889217,257428.453125,710940.0,711451.6875,436883.375,711345.625,711373.1875,272403.21875,712089.9375,0.0
1772569218.3993487,257430.328125,710940.4375,711451.9375,436818.1875,711346.375,711373.8125,272368.625,712090.25,0.0
1772569218.4025629,257420.140625,710944.0,711455.25,436839.46875,711349.6875,711376.6875,272391.875,712094.0,0.0
1772569218.4025967,257422.015625,710945.625,711456.75,436874.96875,711350.9375,711378.1875,272432.8125,712095.4375,0.0
1772569218.4046252,257441.421875,710942.3125,711453.5625,436732.46875,711347.5,711375.5,272366.375,712091.9375,0.0
1772569218.4188795,257443.828125,710941.625,711452.75,436637.0625,711346.8125,711374.625,272317.3125,712091.1875,0.0
1772569218.4189105,257449.28125,710946.4375,711457.6875,436653.78125,711351.5625,711379.5,272341.34375,712096.0625,0.0
1772569218.4211228,257437.84375,710949.6875,711461.0,436694.1875,711354.6875,711383.0,272383.46875,712099.5,0.0
1772569218.4211383,257429.796875,710941.875,711453.1875,436568.125,711347.25,711375.3125,272321.875,712091.8125,0.0
1772569218.4342504,257438.46875,710938.5625,711450.25,436448.78125,711344.1875,711371.9375,272258.3125,712088.6875,0.0
1772569218.4381762,257439.265625,710942.6875,711454.5625,436459.6875,711348.3125,711376.3125,272275.65625,712093.0,0.0
1772569218.4381933,257430.6875,710950.75,711462.3125,436512.96875,711356.75,711384.1875,272334.125,712101.125,0.0
1772569218.4382436,257428.09375,710947.6875,711459.25,436429.28125,711353.3125,711380.875,272308.71875,712097.9375,0.0
1772569218.4404924,257428.0,710942.75,711453.75,436281.5,711347.8125,711375.9375,272231.375,712092.4375,0.0
1772569218.444242,257422.1875,710943.25,711454.625,436269.5,711348.25,711376.375,272227.1875,712092.625,0.0
1772569218.4587302,257413.703125,710944.375,711455.8125,436307.6875,711349.75,711377.375,272266.15625,712094.0625,0.0
1772569218.4587512,257421.296875,710945.625,711456.875,436272.90625,711351.375,711378.625,272267.59375,712095.25,0.0
1772569218.4617517,257422.640625,710940.875,711452.3125,436106.0625,711346.625,711374.1875,272173.625,712090.9375,0.0
1772569218.46179,257421.390625,710940.375,711452.125,436082.09375,711345.8125,711373.5625,272157.625,712090.5,0.0
1772569218.4617999,257416.46875,710942.25,711453.9375,436122.0625,711347.6875,711375.3125,272196.6875,712092.4375,0.0
1772569218.4761412,257430.234375,710946.6875,711457.9375,436135.125,711352.0625,711379.6875,272230.75,712096.75,0.0
1772569218.4761925,257438.46875,710940.0625,711451.6875,435967.3125,711345.9375,711373.1875,272141.09375,712090.25,0.0
1772569218.4788592,257441.140625,710942.6875,711454.875,435932.1875,711349.0625,711376.3125,272120.34375,712093.0625,0.0
1772569218.4788907,257435.875,710947.9375,711459.75,435971.59375,711353.875,711381.0625,272152.25,712098.0625,0.0
1772569218.491825,257426.75,710947.625,711459.375,435990.71875,711353.3125,711380.3125,272177.90625,712097.375,0.0
1772569218.4994123,257425.953125,710940.0,711451.4375,435829.53125,711345.5625,711372.5625,272093.96875,712090.0625,0.0
1772569218.499446,257427.203125,710940.6875,711452.5,435765.25,711346.1875,711373.25,272059.625,712090.6875,0.0
1772569218.4994557,257427.921875,710946.1875,711458.1875,435797.625,711351.8125,711379.0625,272094.59375,712096.3125,0.0
1772569218.5028105,257419.0625,710948.875,711461.0625,435842.125,711354.6875,711381.6875,272142.96875,712099.0,0.0
1772569218.5028636,257416.375,710942.125,711454.0625,435700.4375,711347.5,711374.9375,272072.15625,712091.8125,0.0
1772569218.5132723,257416.734375,710940.25,711452.3125,435602.53125,711346.0,711373.1875,272014.5625,712089.875,0.0
1772569218.5163145,257419.0625,710943.5625,711455.6875,435624.0,711349.3125,711377.125,272038.34375,712093.8125,0.0
1772569218.5163488,257427.109375,710947.6875,711459.5625,435679.59375,711353.0625,711381.0625,272096.5625,712097.625,0.0
1772569218.5182338,257437.484375,710944.125,711456.3125,435568.375,711349.6875,711377.1875,272052.9375,712094.0625,0.0
1772569218.5269735,257440.78125,710940.5625,711452.75,435439.53125,711346.4375,711373.8125,271983.46875,712090.5625,0.0
1772569218.5294669,257437.75,710942.75,711454.8125,435442.3125,711348.5,711376.125,271992.9375,712092.875,0.0
1772569218.533372,257438.90625,710946.8125,711458.9375,435497.3125,711352.5,711379.8125,272047.375,712096.9375,0.0
1772569218.542576,257441.0625,710945.375,711457.25,435425.59375,711350.5625,711378.4375,272027.09375,712095.25,0.0
1772569218.54261,257450.09375,710939.1875,711451.5,435275.125,711344.3125,711372.4375,271944.46875,712089.125,0.0
1772569218.5444765,257442.75,710938.125,711450.4375,435258.9375,711344.125,711371.375,271934.28125,712088.5,0.0
1772569218.555678,257441.6875,710941.25,711453.3125,435303.46875,711347.3125,711374.3125,271982.375,712091.8125,0.0
1772569218.558476,257449.546875,710942.4375,711455.0,435278.875,711348.6875,711375.6875,271999.09375,712093.0,0.0
1772569218.5585084,257453.84375,710941.8125,711453.75,435124.46875,711347.25,711374.4375,271924.375,712091.625,0.0
1772569218.564511,257452.6875,710942.9375,711454.6875,435099.0,711348.5,711375.5625,271910.15625,712092.625,0.0
1772569218.5672934,257436.5,710944.0,711456.0,435128.6875,711349.75,711377.0,271940.625,712093.8125,0.0
1772569218.570766,257431.578125,710942.4375,711454.625,435121.6875,711348.5,711375.5625,271956.28125,712092.4375,0.0
1772569218.5745203,257432.46875,710935.625,711447.9375,434943.78125,711341.875,711369.0,271862.3125,712086.1875,0.0
1772569218.5830376,257437.921875,710940.625,711452.9375,434906.40625,711347.0625,711374.25,271849.625,712091.125,0.0
1772569218.5863304,257436.9375,710943.375,711455.875,434936.34375,711349.5,711376.875,271886.46875,712093.625,0.0
1772569218.5863822,257432.109375,710942.6875,711455.25,434956.5625,711348.75,711376.25,271922.03125,712092.875,0.0
1772569218.5883105,257429.609375,710935.6875,711447.9375,434790.34375,711341.875,711368.8125,271835.75,712086.0,0.0
1772569218.6023903,257430.421875,710939.375,711451.5625,434719.375,711345.75,711372.8125,271797.5,712089.5,0.0
1772569218.6024296,257428.890625,710943.875,711455.8125,434744.5,711349.6875,711377.1875,271827.90625,712093.625,0.0
1772569218.6042788,257426.484375,710946.8125,711458.8125,434785.875,711352.875,711380.125,271877.875,712097.3125,0.0
1772569218.6073303,257423.625,710941.1875,711453.3125,434642.03125,711347.25,711374.625,271810.0,712091.5,0.0
1772569218.6107605,257421.296875,710938.8125,711451.0625,434531.53125,711345.0,711372.125,271749.65625,712089.0,0.0
1772569218.6142876,257424.34375,710942.625,711454.5625,434543.9375,711348.5625,711375.4375,271772.46875,712092.375,0.0
1772569218.6238751,257424.0625,710945.125,711457.375,434589.1875,711351.5625,711378.375,271823.96875,712095.25,0.0
1772569218.623907,257418.609375,710940.8125,711453.0,434478.0625,711347.0625,711374.0625,271781.59375,712090.75,0.0
1772569218.6265056,257423.265625,710940.0,711451.875,434347.0,711346.0,711372.9375,271715.34375,712090.0625,0.0
1772569218.6265385,257412.171875,710939.4375,711451.875,434334.03125,711346.0,711372.75,271713.4375,712089.875,0.0
1772569218.6317835,257407.53125,710940.5625,711452.75,434369.875,711347.0,711373.6875,271757.875,712091.1875,0.0
1772569218.6465569,257409.765625,710941.4375,711453.5625,434301.375,711347.875,711374.4375,271746.4375,712091.9375,0.0
1772569218.646622,257412.890625,710938.1875,711450.0625,434145.65625,711344.5625,711371.125,271670.09375,712088.0625,0.0
1772569218.6482406,257412.71875,710943.25,711455.4375,434141.25,711349.5,711376.5,271680.375,712093.4375,0.0
1772569218.6507552,257401.546875,710948.4375,711461.0,434178.09375,711354.9375,711382.125,271728.46875,712099.1875,0.0
1772569218.653293,257396.078125,710945.75,711458.1875,434137.875,711352.0,711379.25,271732.84375,712096.3125,0.0
1772569218.6567783,257400.375,710944.9375,711457.25,433970.5,711350.75,711378.1875,271653.46875,712094.9375,0.0
1772569218.6660886,257396.796875,710945.625,711457.6875,433933.65625,711351.5625,711379.0,271639.5,712095.6875,0.0
1772569218.6661155,257393.140625,710947.6875,711459.625,433958.34375,711353.4375,711381.0625,271674.03125,712097.9375,0.0
1772569218.6679752,257389.734375,710947.125,711459.125,433953.875,711353.25,711380.4375,271699.15625,712097.4375,0.0
1772569218.6742399,257383.296875,710939.3125,711451.3125,433771.90625,711345.4375,711372.8125,271607.40625,712090.0625,0.0
1772569218.681063,257385.453125,710937.4375,711449.6875,433712.1875,711343.5625,711371.0625,271580.5,712088.0625,0.0
1772569218.6810825,257391.4375,710944.5625,711456.75,433739.75,711350.8125,711378.1875,271623.875,712095.4375,0.0
1772569218.682962,257389.921875,710948.25,711460.1875,433758.0625,711353.75,711381.375,271667.84375,712098.5625,0.0
1772569218.6920235,257380.890625,710937.6875,711449.4375,433576.3125,711343.3125,711370.4375,271577.8125,712087.4375,0.0
1772569218.6963444,257385.796875,710936.6875,711449.0,433488.6875,711343.0625,711370.125,271537.40625,712086.9375,0.0
1772569218.6964169,257386.703125,710939.75,711452.125,433502.8125,711346.0625,711373.375,271564.15625,712090.0625,0.0
1772569218.7005372,257379.546875,710942.9375,711455.4375,433536.96875,711349.1875,711376.5625,271610.71875,712093.375,0.0
1772569218.7070065,257379.8125,710938.375,711450.9375,433394.8125,711344.6875,711371.9375,271550.8125,712089.0,0.0
1772569218.7111812,257380.890625,710935.5625,711448.125,433276.25,711341.4375,711368.8125,271490.8125,712085.9375,0.0
1772569218.7112348,257375.875,710939.3125,711451.9375,433280.8125,711345.0,711372.4375,271513.4375,712089.75,0.0
1772569218.717098,257377.21875,710944.125,711456.875,433327.9375,711349.75,711377.5,271578.28125,712094.6875,0.0
1772569218.7263455,257362.375,710937.4375,711449.875,433205.53125,711343.0625,711370.9375,271526.3125,712087.5625,0.0
1772569218.726375,257380.34375,710936.9375,711449.25,433075.25,711343.125,711370.75,271466.5,712087.125,0.0
1772569218.7290356,257388.03125,710941.1875,711453.625,433073.21875,711347.6875,711374.875,271480.09375,712091.625,0.0
1772569218.72907,257382.3125,710945.375,711457.3125,433109.78125,711351.25,711378.375,271525.875,712095.5625,0.0
1772569218.7345052,257377.40625,710938.5625,711450.6875,433025.1875,711344.5,711371.8125,271498.15625,712088.875,0.0
1772569218.73703,257382.9375,710932.9375,711445.625,432859.34375,711339.0,711366.5,271416.96875,712083.5,0.0
1772569218.745834,257382.671875,710936.0,711448.625,432843.4375,711342.25,711369.875,271421.0,712086.75,0.0
1772569218.7500825,257373.109375,710939.375,711451.9375,432877.21875,711345.5625,711373.0625,271466.6875,712090.0625,0.0
1772569218.7501156,257373.734375,710937.75,711450.6875,432839.0625,711344.1875,711371.5,271473.40625,712088.6875,0.0
1772569218.752,257373.90625,710930.1875,711443.1875,432655.3125,711336.5,711364.0,271382.03125,712080.8125,0.0
1772569218.7633097,257376.234375,710932.0625,711444.5,432612.125,711338.25,711365.875,271365.03125,712082.5625,0.0
1772569218.7725668,257380.4375,710939.5625,711451.75,432647.8125,711345.1875,711373.0,271414.90625,712089.6875,0.0
1772569218.772601,257383.5625,710943.25,711456.125,432662.1875,711349.5,711376.9375,271460.59375,712093.875,0.0
1772569218.7769966,257385.53125,710934.8125,711447.625,432478.03125,711340.8125,711368.4375,271369.5,712085.125,0.0
1772569218.7796113,257384.546875,710932.0625,711444.6875,432410.6875,711337.9375,711365.6875,271335.96875,712082.5625,0.0
1772569218.782006,257375.703125,710935.1875,711447.625,432430.90625,711340.8125,711368.8125,271367.0,712085.8125,0.0
1772569218.7845013,257368.453125,710937.875,711450.1875,432457.625,711343.5625,711371.375,271411.4375,712088.1875,0.0
1772569218.787017,257374.625,710931.3125,711443.4375,432290.0,711337.25,711364.75,271331.25,712081.625,0.0
1772569218.796105,257374.8125,710931.875,711444.1875,432192.09375,711337.5,711365.375,271279.28125,712082.375,0.0
1772569218.7961428,257373.46875,710938.375,711450.9375,432204.53125,711344.3125,711371.75,271303.78125,712088.8125,0.0
1772569218.7983625,257363.71875,710942.25,711455.0,432240.46875,711348.4375,711375.9375,271354.3125,712093.25,0.0
1772569218.831987,257359.96875,710934.9375,711446.9375,432095.09375,711340.625,711368.375,271289.5625,712085.3125,0.0
1772569218.8359876,257362.640625,710930.6875,711442.8125,431978.40625,711336.4375,711364.125,271228.875,712080.6875,0.0
1772569218.8360493,257369.0,710939.9375,711452.375,431998.8125,711345.5625,711373.0,271256.59375,712089.875,0.0
1772569218.8360612,257370.15625,710945.75,711458.5,432048.25,711351.4375,711378.75,271308.15625,712095.75,0.0
1772569218.839992,257369.625,710936.9375,711449.4375,431940.40625,711342.4375,711370.0625,271261.5,712087.1875,0.0
1772569218.8400235,257364.53125,710931.125,711443.8125,431785.75,711336.6875,711364.3125,271172.8125,712081.5625,0.0
1772569218.840032,257356.125,710933.3125,711445.6875,431771.625,711338.875,711366.3125,271167.1875,712083.3125,0.0
1772569218.840038,257351.5625,710937.5625,711450.5,431815.0625,711343.25,711371.0625,271216.09375,712087.8125,0.0
1772569218.843115,257349.140625,710936.1875,711448.75,431754.90625,711341.375,711369.25,271202.21875,712086.1875,0.0
1772569218.843152,257352.28125,710931.9375,711444.5,431597.09375,711337.4375,711365.5625,271122.03125,712082.1875,0.0
1772569218.8431623,257353.890625,710936.4375,711449.0625,431584.9375,711342.3125,711370.0625,271127.375,712086.625,0.0
1772569218.8457615,257347.265625,710936.875,711449.1875,431613.71875,711343.0625,711370.5625,271164.21875,712087.25,0.0
1772569218.849693,257345.75,710934.75,711447.375,431587.96875,711341.0,711368.5,271172.8125,712085.5625,0.0
1772569218.8557763,257358.796875,710935.375,711448.8125,431435.625,711341.875,711369.25,271106.03125,712086.3125,0.0
1772569218.867355,257343.0625,710932.375,711445.875,431385.46875,711338.5,711366.125,271074.0,712083.0,0.0
1772569218.8673863,257329.03125,710934.4375,711447.5,431410.9375,711340.4375,711368.1875,271100.46875,712084.6875,0.0
1772569218.8800669,257343.609375,710942.3125,711455.0625,431439.46875,711348.5625,711376.125,271148.40625,712092.8125,0.0
1772569218.8801007,257334.03125,710933.5625,711446.125,431257.25,711339.75,711366.9375,271051.84375,712083.875,0.0
1772569218.8830335,257325.453125,710931.9375,711444.875,431189.125,711337.875,711365.25,271011.875,712082.1875,0.0
1772569218.8830771,257319.734375,710934.4375,711447.5,431210.9375,711340.25,711367.8125,271034.59375,712085.125,0.0
1772569218.8830905,257328.5,710938.3125,711451.6875,431254.84375,711344.375,711372.375,271086.8125,712089.25,0.0
1772569218.8856153,257353.265625,710936.5,711449.6875,431116.71875,711342.3125,711370.125,271030.03125,712087.0,0.0
1772569218.889558,257350.046875,710933.75,711446.875,431023.71875,711339.375,711366.9375,270981.03125,712083.8125,0.0
1772569218.893222,257344.5,710937.75,711450.625,431036.0625,711343.3125,711371.1875,271001.40625,712087.8125,0.0
1772569218.9019954,257339.046875,710941.25,711454.0625,431081.84375,711346.8125,711374.9375,271051.65625,712091.8125,0.0
1772569218.9061852,257335.109375,710932.875,711446.125,430957.5625,711338.6875,711366.375,270994.4375,712083.625,0.0
1772569218.9062355,257338.6875,710933.375,711446.875,430845.8125,711339.375,711367.0,270933.5625,712083.875,0.0
1772569218.9121256,257341.546875,710935.0625,711448.3125,430858.40625,711341.4375,711369.0625,270949.03125,712085.375,0.0
1772569218.9142282,257336.890625,710938.5,711451.3125,430913.59375,711344.5625,711372.125,271007.21875,712089.0,0.0
1772569218.920475,257329.921875,710933.0,711445.9375,430818.375,711338.75,711366.3125,270972.53125,712083.0625,0.0
1772569218.92423,257335.921875,710931.9375,711444.875,430679.25,711337.875,711365.125,270901.90625,712081.8125,0.0
1772569218.9310684,257335.28125,710934.5625,711447.5,430676.03125,711340.625,711367.8125,270904.3125,712084.875,0.0
1772569218.9310925,257323.3125,710937.0625,711450.625,430722.25,711343.4375,711370.5,270949.1875,712087.625,0.0
1772569218.9443154,257328.765625,710938.6875,711451.9375,430684.53125,711344.5625,711371.8125,270952.6875,712088.6875,0.0
1772569218.947306,257333.765625,710934.0,711446.9375,430525.375,711339.75,711367.0,270865.4375,712084.0625,0.0
1772569218.947318,257333.046875,710935.1875,711448.4375,430512.84375,711341.25,711368.6875,270859.15625,712085.5625,0.0
1772569218.9492452,257336.0,710941.1875,711454.375,430564.53125,711347.1875,711374.4375,270908.78125,712091.3125,0.0
1772569218.9536295,257335.921875,710940.8125,711453.625,430552.46875,711346.4375,711374.0625,270923.375,712091.0,0.0
1772569218.9536417,257335.375,710932.25,711445.0,430377.59375,711337.875,711365.375,270828.6875,712082.25,0.0
1772569218.9567163,257332.15625,710932.6875,711445.625,430338.6875,711338.25,711365.375,270810.4375,712082.6875,0.0
1772569218.9761467,257327.78125,710937.5625,711450.6875,430372.5625,711343.3125,711370.6875,270846.65625,712087.8125,0.0
1772569218.9761727,257320.359375,710939.1875,711452.3125,430389.75,711344.6875,711372.75,270879.90625,712089.5,0.0
1772569218.9783525,257321.515625,710932.5625,711445.625,430225.78125,711337.875,711366.3125,270798.375,712082.8125,0.0
1772569218.980447,257325.625,710933.3125,711446.5625,430164.78125,711339.0,711367.125,270765.28125,712083.625,0.0
1772569218.987122,257325.625,710937.75,711450.9375,430185.28125,711343.0625,711371.1875,270791.5625,712087.8125,0.0
1772569218.9918568,257320.09375,710938.6875,711452.3125,430215.75,711344.5625,711372.125,270833.25,712089.0625,0.0
1772569218.994508,257314.453125,710929.5625,711443.0,430061.0,711335.375,711363.0625,270761.53125,712080.0,0.0
1772569218.9968266,257319.375,710928.5,711442.0,429968.71875,711334.625,711362.5625,270716.90625,712079.5,0.0
1772569218.9993043,257319.375,710932.375,711445.75,429986.4375,711338.5,711366.1875,270740.53125,712083.1875,0.0
1772569219.002018,257312.671875,710936.0,711448.8125,430040.96875,711341.625,711369.3125,270797.9375,712086.0,0.0
1772569219.0057027,257313.109375,710933.1875,711446.125,429923.21875,711338.75,711366.625,270746.78125,712083.25,0.0
1772569219.0126038,257316.328125,710931.25,711444.8125,429803.15625,711336.875,711364.625,270683.40625,712081.375,0.0
1772569219.0126388,257310.078125,710934.25,711447.5,429810.125,711340.0,711367.5625,270697.34375,712084.4375,0.0
1772569219.0205314,257305.15625,710936.625,711450.1875,429858.03125,711342.875,711370.3125,270744.90625,712087.125,0.0
1772569219.0237198,257305.515625,710929.25,711442.75,429760.84375,711335.0625,711363.0,270702.875,712079.5,0.0
1772569219.023766,257311.859375,710927.5,711440.9375,429611.09375,711333.375,711361.4375,270624.375,712078.0,0.0
1772569219.0318146,257314.90625,710931.875,711445.4375,429605.375,711337.75,711365.75,270626.96875,712082.4375,0.0
1772569219.0351913,257312.40625,710936.4375,711449.875,429649.1875,711342.3125,711370.3125,270673.90625,712086.9375,0.0
1772569219.0352416,257311.328125,710934.0,711447.625,429599.125,711340.125,711367.875,270669.71875,712084.3125,0.0
1772569219.0370374,257316.6875,710930.25,711443.875,429433.53125,711336.1875,711364.4375,270585.21875,712080.9375,0.0
1772569219.050848,257325.90625,710934.4375,711448.3125,429414.40625,711340.4375,711368.5,270582.53125,712085.375,0.0
1772569219.0540032,257314.71875,710936.0,711449.8125,429437.90625,711342.125,711369.875,270613.125,712086.5625,0.0
1772569219.054072,257309.984375,710934.5625,711448.125,429421.65625,711340.5625,711368.6875,270626.25,712085.3125,0.0
1772569219.0558827,257306.671875,710925.6875,711439.1875,429242.125,711331.875,711359.75,270529.625,712076.4375,0.0
1772569219.0594754,257305.609375,710927.0625,711440.5,429196.15625,711333.0625,711360.8125,270503.59375,712077.5,0.0
1772569219.0682333,257301.5,710929.875,711443.375,429225.75,711335.8125,711363.875,270533.28125,712080.375,0.0
1772569219.0723891,257294.25,710930.1875,711443.8125,429236.03125,711336.25,711364.0,270559.46875,712081.125,0.0
1772569219.0724225,257295.953125,710925.5,711438.375,429064.5625,711331.625,711359.125,270473.03125,712076.125,0.0
1772569219.0882452,257302.203125,710926.5,711439.625,428993.9375,711332.5625,711360.3125,270437.4375,712077.0625,0.0
1772569219.0914395,257308.90625,710932.3125,711445.6875,429013.78125,711338.125,711366.0,270471.40625,712083.0,0.0
1772569219.0914903,257307.84375,710933.8125,711447.5,429037.5625,711339.75,711367.8125,270515.5,712084.5625,0.0
1772569219.093193,257306.328125,710928.0,711441.75,428883.5,711333.9375,711362.0,270447.4375,712078.4375,0.0
1772569219.095755,257306.671875,710926.875,711440.25,428781.40625,711332.75,711360.6875,270392.09375,712076.875,0.0
1772569219.0989883,257309.09375,710930.4375,711444.0625,428797.40625,711336.4375,711363.8125,270408.5625,712080.75,0.0
1772569219.0990205,257298.8125,710934.0,711447.9375,428843.0,711340.125,711367.1875,270455.40625,712084.25,0.0
1772569219.1005468,257286.109375,710928.1875,711441.6875,428715.25,711334.0,711361.3125,270393.8125,712078.5,0.0
1772569219.1142936,257291.84375,710926.5625,711440.3125,428586.0625,711332.5625,711359.5,270325.21875,712077.0625,0.0
1772569219.117578,257294.15625,710931.625,711445.25,428595.53125,711337.4375,711364.75,270343.28125,712081.8125,0.0
1772569219.1176116,257296.21875,710936.5,711449.875,428646.21875,711342.4375,711369.625,270402.75,712086.625,0.0
1772569219.1195376,257287.640625,710925.8125,711439.4375,428548.0625,711331.875,711359.3125,270365.46875,712076.25,0.0
1772569219.1220036,257278.6875,710919.875,711433.1875,428386.03125,711325.875,711353.625,270280.34375,712070.1875,0.0
1772569219.1307533,257287.8125,710928.1875,711441.6875,428383.71875,711334.125,711361.5625,270289.65625,712078.4375,0.0
1772569219.1348436,257285.484375,710931.625,711445.4375,428422.25,711337.625,711364.9375,270329.0625,712081.9375,0.0
1772569219.1348667,257283.96875,710928.625,711442.5625,428380.21875,711334.5625,711362.1875,270324.5,712078.9375,0.0
1772569219.140734,257290.765625,710925.4375,711439.25,428215.1875,711331.25,711358.9375,270238.0625,712075.9375,0.0
1772569219.1501243,257292.546875,710930.0,711443.375,428192.03125,711335.625,711363.4375,270229.65625,712080.1875,0.0
1772569219.1501577,257282.09375,710932.5,711446.125,428221.53125,711338.875,711366.0,270263.1875,712083.0625,0.0
1772569219.1520765,257280.75,710930.6875,711444.0625,428208.65625,711336.5,711363.875,270277.3125,712081.0,0.0
1772569219.16059,257283.96875,710924.25,711437.8125,428033.59375,711330.0625,711357.8125,270188.4375,712074.9375,0.0
1772569219.1638815,257284.953125,710925.3125,711439.3125,427986.40625,711331.25,711358.875,270165.625,712076.25,0.0
1772569219.1639097,257283.4375,710926.25,711440.3125,428009.5625,711332.5,711360.0625,270194.0625,712077.0625,0.0
1772569219.1655908,257286.390625,710927.0625,711440.9375,428030.75,711332.9375,711360.8125,270231.09375,712077.6875,0.0
1772569219.1746063,257282.09375,710920.0,711434.0,427865.53125,711326.0,711353.75,270149.8125,712070.625,0.0
1772569219.1788971,257289.0625,710923.4375,711437.5625,427799.28125,711329.375,711357.25,270118.53125,712074.25,0.0
1772569219.178929,257287.8125,710925.3125,711439.1875,427816.96875,711331.0,711358.875,270142.125,712075.9375,0.0
1772569219.1842096,257286.390625,710929.75,711443.25,427856.9375,711335.375,711363.1875,270192.625,712080.0,0.0
1772569219.1945107,257281.46875,710923.0,711437.1875,427706.46875,711328.8125,711356.4375,270122.0,712073.25,0.0
1772569219.2018561,257278.78125,710920.125,711434.625,427597.90625,711326.25,711353.625,270066.125,712070.375,0.0
1772569219.2019055,257276.375,710924.875,711439.0,427609.375,711331.1875,711358.8125,270088.46875,712075.5,0.0
1772569219.2019193,257274.484375,710930.625,711444.375,427660.96875,711336.8125,711364.125,270150.53125,712080.9375,0.0
1772569219.2048912,257275.5625,710926.5625,711440.5625,427557.5,711332.5625,711360.1875,270116.71875,712077.0,0.0
1772569219.2049236,257278.34375,710922.75,711436.9375,427419.09375,711328.75,711356.4375,270044.9375,712073.625,0.0
1772569219.215863,257271.546875,710921.25,711435.5625,427410.0,711327.5,711355.125,270046.625,712072.1875,0.0
1772569219.224876,257266.265625,710925.1875,711439.6875,427453.25,711331.625,711358.9375,270094.375,712076.25,0.0
1772569219.22491,257269.390625,710924.0625,711438.6875,427385.03125,711330.375,711357.875,270080.25,712074.6875,0.0
1772569219.2313097,257271.984375,710918.25,711432.875,427225.71875,711324.625,711352.375,269995.0625,712069.3125,0.0
1772569219.2313452,257269.578125,710917.5,711431.625,427203.625,711323.3125,711351.25,269986.5625,712068.125,0.0
1772569219.2376976,257271.984375,710923.5625,711438.0,427252.8125,711329.375,711357.625,270042.78125,712074.25,0.0
1772569219.2377532,257273.859375,710923.75,711438.0625,427218.5625,711330.0625,711358.0,270047.25,712074.6875,0.0
1772569219.239346,257279.40625,710917.625,711432.4375,427048.96875,711324.25,711351.875,269959.71875,712068.5625,0.0
1772569219.24827,257280.84375,710921.5625,711435.9375,427025.28125,711328.0,711355.75,269954.0,712072.6875,0.0
1772569219.2575872,257277.0,710927.5625,711441.875,427063.0,711334.1875,711361.5625,269994.6875,712079.0625,0.0
1772569219.2576249,257263.9375,710922.8125,711437.5625,427047.96875,711329.625,711357.1875,270004.0,712074.5,0.0
1772569219.2598987,257258.9375,710913.875,711428.6875,426863.71875,711320.4375,711348.0625,269906.53125,712065.1875,0.0
1772569219.259935,257270.203125,710918.8125,711433.4375,426823.03125,711325.1875,711352.875,269893.75,712069.6875,0.0
1772569219.2707627,257265.1875,710922.125,711436.6875,426846.0,711328.5625,711355.9375,269923.0,712073.0625,0.0
1772569219.2807636,257263.046875,710924.0625,711438.4375,426872.5625,711330.25,711357.5625,269966.25,712075.0,0.0
1772569219.2808137,257269.3125,710918.5625,711433.0625,426713.78125,711324.4375,711352.25,269890.25,712069.375,0.0
1772569219.2808244,257279.953125,710918.75,711433.5,426637.4375,711324.875,711353.0,269850.46875,712069.75,0.0
1772569219.283913,257283.875,710923.125,711437.8125,426657.8125,711329.25,711357.0,269874.71875,712073.9375,0.0
1772569219.2839475,257276.90625,710927.6875,711442.0,426699.65625,711333.6875,711360.9375,269921.09375,712078.4375,0.0
1772569219.2857635,257272.53125,710919.5,711434.3125,426558.3125,711325.625,711353.5,269853.875,712070.375,0.0
1772569219.2970057,257269.9375,710915.5,711430.375,426446.625,711321.875,711349.9375,269793.875,712066.1875,0.0
1772569219.303694,257267.515625,710920.625,711435.125,426456.5625,711326.9375,711354.6875,269810.6875,712071.0625,0.0
1772569219.303736,257260.640625,710923.1875,711437.8125,426502.875,711329.375,711357.0,269862.375,712074.0625,0.0
