timestamps,Fz,C3,Cz,C4,Pz,PO7,Oz,PO8,stim
1763252363.2912118,252703.734375,279913.15625,287314.625,266306.03125,242234.453125,226058.484375,233842.890625,273543.875,0.0
1763252363.2961726,252704.09375,279936.3125,287307.8125,266295.84375,242237.40625,226065.015625,233863.0,273540.03125,0.0
1763252363.298515,252704.984375,279951.78125,287300.65625,266286.28125,242235.703125,226064.484375,233867.125,273531.8125,0.0
1763252363.3055165,252704.1875,279938.09375,287303.4375,266289.75,242237.75,226066.71875,233862.375,273537.71875,0.0
1763252363.3055909,252696.59375,279912.96875,287303.0,266289.5625,242237.21875,226063.140625,233856.390625,273547.625,0.0
1763252363.3199224,252700.875,279930.03125,287299.21875,266282.96875,242236.328125,226070.375,233863.90625,273538.78125,0.0
1763252363.3229609,252708.03125,279956.3125,287299.78125,266278.59375,242239.015625,226079.6875,233878.203125,273534.75,0.0
1763252363.3230102,252705.796875,279936.65625,287297.8125,266275.8125,242231.5,226057.328125,233856.125,273528.59375,0.0
1763252363.3247209,252702.21875,279908.40625,287299.78125,266277.78125,242229.53125,226050.09375,233842.890625,273530.8125,0.0
1763252363.3274536,252708.65625,279920.125,287302.71875,266278.5,242237.3125,226061.4375,233860.234375,273539.15625,0.0
1763252363.329684,252719.296875,279952.5625,287302.0,266273.75,242242.3125,226076.734375,233877.671875,273533.96875,0.0
1763252363.3322885,252715.359375,279940.6875,287298.0625,266268.84375,242239.015625,226073.421875,233868.453125,273528.21875,0.0
1763252363.3347225,252712.234375,279916.375,287299.875,266270.0,242239.8125,226068.59375,233858.984375,273538.0625,0.0
1763252363.3372989,252707.3125,279909.65625,287292.71875,266261.25,242236.5,226058.484375,233856.75,273536.71875,0.0
1763252363.3442433,252708.203125,279934.15625,287282.59375,266247.1875,242234.53125,226063.234375,233866.046875,273521.15625,0.0
1763252363.3443167,252704.984375,279927.71875,287277.96875,266242.09375,242230.78125,226060.1875,233860.140625,273517.25,0.0
1763252363.3458009,252697.921875,279902.78125,287278.9375,266244.5,242227.390625,226052.328125,233846.203125,273522.0625,0.0
1763252363.3549256,252693.640625,279896.0625,287279.125,266244.0625,242229.265625,226061.0,233851.921875,273531.09375,0.0
1763252363.363918,252695.421875,279928.25,287273.84375,266234.875,242232.75,226079.6875,233872.578125,273526.53125,0.0
1763252363.3639896,252690.59375,279929.78125,287270.625,266230.65625,242233.734375,226076.375,233867.921875,273521.53125,0.0
1763252363.3688612,252687.46875,279911.53125,287276.96875,266234.78125,242235.171875,226064.84375,233858.53125,273529.40625,0.0
1763252363.3714864,252696.671875,279909.9375,287290.375,266248.09375,242248.21875,226067.34375,233861.75,273545.03125,0.0
1763252363.3715813,252698.015625,279935.75,287283.3125,266236.90625,242249.640625,226076.109375,233876.140625,273535.5625,0.0
1763252363.3736172,252700.515625,279948.09375,287280.8125,266232.625,242254.296875,226090.046875,233890.28125,273533.875,0.0
1763252363.382418,252697.296875,279924.21875,287278.9375,266231.65625,242248.125,226075.125,233869.703125,273533.59375,0.0
1763252363.3942387,252692.921875,279899.65625,287276.34375,266228.78125,242240.625,226054.640625,233850.046875,273532.25,0.0
1763252363.3943105,252695.15625,279918.96875,287268.65625,266217.6875,242236.328125,226058.046875,233856.65625,273519.5625,0.0
1763252363.3961632,252691.84375,279934.4375,287261.40625,266208.5,242235.609375,226068.140625,233871.59375,273513.03125,0.0
1763252363.3987236,252687.828125,279919.3125,287262.84375,266210.8125,242236.59375,226071.71875,233867.03125,273521.0,0.0
1763252363.4124088,252681.125,279891.25,287258.28125,266208.21875,242229.265625,226050.0,233843.875,273523.125,0.0
1763252363.4157453,252687.203125,279910.65625,287255.15625,266203.375,242234.0,226057.328125,233859.421875,273525.09375,0.0
1763252363.4157948,252696.859375,279938.96875,287254.0,266199.09375,242241.875,226074.765625,233882.671875,273528.6875,0.0
1763252363.4158044,252704.71875,279930.84375,287260.96875,266205.96875,242248.75,226079.953125,233880.796875,273540.9375,0.0
1763252363.4187298,252702.84375,279902.6875,287262.9375,266210.09375,242248.21875,226071.453125,233864.4375,273546.125,0.0
1763252363.4212475,252701.0625,279905.90625,287255.78125,266201.59375,242245.265625,226069.75,233862.203125,273535.21875,0.0
1763252363.423454,252706.0625,279933.09375,287250.5,266192.75,242247.765625,226081.734375,233880.625,273527.15625,0.0
1763252363.4260013,252706.0625,279925.125,287252.21875,266194.1875,242248.578125,226083.078125,233879.90625,273533.59375,0.0
1763252363.4374285,252697.296875,279891.6875,287249.25,266191.21875,242240.4375,226069.9375,233854.421875,273531.53125,0.0
1763252363.4404707,252698.375,279895.625,287249.875,266188.09375,242242.5,226071.546875,233857.46875,273529.75,0.0
1763252363.440519,252698.375,279923.15625,287239.6875,266173.4375,242236.140625,226069.3125,233863.71875,273510.1875,0.0
1763252363.442358,252691.40625,279918.40625,287235.75,266167.09375,242231.140625,226063.234375,233860.328125,273504.71875,0.0
1763252363.448637,252688.625,279900.09375,287244.25,266175.21875,242234.71875,226060.375,233854.328125,273516.0625,0.0
1763252363.4527695,252693.09375,279899.46875,287252.75,266182.5625,242242.671875,226062.875,233857.015625,273526.0,0.0
1763252363.4528403,252705.078125,279940.59375,287258.65625,266182.5625,242255.015625,226089.96875,233888.671875,273525.375,0.0
1763252363.4558468,252702.9375,279943.8125,287253.8125,266175.84375,242249.375,226079.046875,233876.328125,273513.5625,0.0
1763252363.4647,252691.671875,279911.625,287248.71875,266171.125,242237.3125,226057.0625,233846.375,273503.28125,0.0
1763252363.4688106,252691.84375,279900.0,287254.34375,266177.1875,242244.90625,226055.1875,233844.234375,273513.75,0.0
1763252363.4688272,252699.09375,279932.28125,287254.0,266174.5,242254.203125,226069.9375,233869.53125,273513.46875,0.0
1763252363.4744964,252701.5,279947.03125,287252.28125,266171.8125,242259.65625,226081.375,233882.671875,273515.90625,0.0
1763252363.4770792,252694.984375,279924.15625,287250.15625,266168.4375,242255.015625,226076.734375,233871.234375,273517.78125,0.0
1763252363.485716,252689.515625,279897.59375,287247.46875,266164.59375,242249.015625,226066.984375,233857.640625,273517.25,0.0
1763252363.4887898,252694.171875,279917.53125,287241.75,266156.0,242250.546875,226071.71875,233867.46875,273508.5625,0.0
1763252363.4888096,252694.265625,279929.78125,287232.28125,266143.9375,242244.546875,226067.515625,233864.25,273493.8125,0.0
1763252363.4944613,252695.15625,279917.0,287235.9375,266146.71875,242246.34375,226065.015625,233855.765625,273499.4375,0.0
1763252363.503826,252696.765625,279897.0625,287243.53125,266153.6875,242249.734375,226062.515625,233847.0,273509.46875,0.0
1763252363.5038452,252709.1875,279921.5625,287250.5,266158.25,242260.828125,226078.421875,233867.828125,273520.46875,0.0
1763252363.5057344,252711.609375,279946.03125,287245.40625,266149.3125,242262.4375,226088.625,233879.90625,273511.78125,0.0
1763252363.511966,252703.296875,279925.40625,287238.15625,266143.03125,242254.75,226074.859375,233866.84375,273508.21875,0.0
1763252363.5163105,252704.28125,279897.59375,287242.1875,266149.03125,242253.21875,226062.515625,233854.15625,273515.53125,0.0
1763252363.5163264,252711.34375,279900.53125,287244.25,266149.375,242257.96875,226067.96875,233863.28125,273519.46875,0.0
1763252363.524475,252715.09375,279922.8125,287234.9375,266137.40625,242256.4375,226075.921875,233872.21875,273509.46875,0.0
1763252363.528788,252710.71875,279912.15625,287230.5625,266132.21875,242254.75,226079.40625,233871.3125,273509.5625,0.0
1763252363.5288043,252707.9375,279889.90625,287235.65625,266136.5,242253.046875,226069.046875,233860.765625,273519.5625,0.0
1763252363.5307057,252711.703125,279888.03125,287236.75,266136.6875,242248.9375,226060.09375,233848.96875,273513.65625,0.0
1763252363.5435307,252714.46875,279919.3125,287233.59375,266129.625,242255.640625,226079.59375,233873.640625,273506.96875,0.0
1763252363.5578437,252710.4375,279919.84375,287234.875,266128.65625,242261.265625,226090.59375,233882.859375,273509.90625,0.0
1763252363.5578687,252710.265625,279900.4375,287243.96875,266138.125,242265.65625,226082.8125,233870.15625,273522.5,0.0
1763252363.5594614,252712.234375,279890.15625,287246.3125,266139.46875,242265.03125,226071.8125,233860.140625,273522.6875,0.0
1763252363.5633807,252719.390625,279919.65625,287241.9375,266131.15625,242265.03125,226079.6875,233877.40625,273514.65625,0.0
1763252363.5633993,252721.171875,279926.65625,287240.40625,266127.3125,242267.984375,226093.53125,233888.125,273514.09375,0.0
1763252363.563408,252714.015625,279902.6875,287238.78125,266124.4375,242263.953125,226089.96875,233872.65625,273512.78125,0.0
1763252363.5672507,252712.5,279884.8125,287237.46875,266123.5625,242262.078125,226071.984375,233854.59375,273515.53125,0.0
1763252363.5707173,252720.546875,279914.65625,287235.5,266119.53125,242267.53125,226083.53125,233871.953125,273512.5,0.0
1763252363.5832713,252722.421875,279930.21875,287232.71875,266113.90625,242270.921875,226097.921875,233889.015625,273514.09375,0.0
1763252363.5863087,252717.78125,279910.09375,287231.46875,266113.0,242267.265625,226083.796875,233873.734375,273514.71875,0.0
1763252363.5863245,252717.953125,279892.84375,287237.0,266118.4375,242269.59375,226077.890625,233865.78125,273522.15625,0.0
1763252363.5883515,252725.28125,279917.96875,287234.78125,266112.625,242271.734375,226086.46875,233878.921875,273516.625,0.0
1763252363.5907412,252726.984375,279934.34375,287227.34375,266102.1875,242268.609375,226089.0625,233882.859375,273506.0625,0.0
1763252363.599454,252721.703125,279912.34375,287225.375,266100.75,242263.421875,226074.5,233868.28125,273505.0,0.0
1763252363.6064413,252716.703125,279887.84375,287228.15625,266104.40625,242263.59375,226066.8125,233859.78125,273515.4375,0.0
1763252363.6064632,252724.65625,279907.25,287228.6875,266102.96875,242270.484375,226080.65625,233878.390625,273524.65625,0.0
1763252363.608346,252722.96875,279925.40625,287215.28125,266087.78125,242264.125,226086.125,233878.828125,273505.0,0.0
1763252363.6119788,252718.484375,279911.4375,287213.75,266086.53125,242264.125,226087.8125,233877.484375,273507.9375,0.0
1763252363.6213117,252714.46875,279885.875,287216.875,266089.84375,242263.78125,226081.734375,233866.578125,273519.28125,0.0
1763252363.621336,252717.5,279891.25,287215.375,266087.4375,242267.34375,226078.25,233870.15625,273525.90625,0.0
1763252363.62395,252721.703125,279919.84375,287209.28125,266076.53125,242269.140625,226086.03125,233883.296875,273511.875,0.0
1763252363.624016,252717.15625,279911.53125,287205.28125,266071.59375,242266.015625,226083.34375,233876.78125,273504.8125,0.0
1763252363.629469,252716.25,279891.40625,287210.625,266078.5625,242267.078125,226079.40625,233867.296875,273515.4375,0.0
1763252363.6383667,252717.15625,279888.65625,287209.1875,266077.5,242266.09375,226080.21875,233869.265625,273521.15625,0.0
1763252363.642634,252715.890625,279915.90625,287197.9375,266062.46875,242263.59375,226089.78125,233884.015625,273511.25,0.0
1763252363.6426706,252708.921875,279911.8125,287192.46875,266054.78125,242259.296875,226093.53125,233878.828125,273504.09375,0.0
1763252363.6510663,252707.84375,279894.0,287200.34375,266062.46875,242261.71875,226093.984375,233869.359375,273514.09375,0.0
1763252363.656541,252705.53125,279879.875,287199.90625,266060.96875,242256.0,226073.875,233852.09375,273513.21875,0.0
1763252363.6565783,252706.0625,279906.34375,287192.21875,266047.8125,242255.546875,226079.765625,233868.015625,273498.71875,0.0
1763252363.6585264,252719.46875,279922.625,287201.875,266055.59375,242269.3125,226090.40625,233884.28125,273508.84375,0.0
1763252363.6646812,252720.71875,279904.28125,287207.6875,266061.9375,242273.34375,226090.859375,233879.8125,273515.53125,0.0
1763252363.6691203,252715.625,279882.5625,287203.21875,266057.125,242266.09375,226074.765625,233857.734375,273507.84375,0.0
1763252363.6691575,252720.015625,279909.375,287197.21875,266048.4375,242267.34375,226081.375,233872.390625,273501.84375,0.0
1763252363.6720657,252722.328125,279921.46875,287192.9375,266043.09375,242269.5,226092.828125,233885.984375,273498.8125,0.0
1763252363.678761,252716.609375,279894.625,287190.0625,266041.03125,242263.5,226079.765625,233868.375,273495.78125,0.0
1763252363.6912353,252719.296875,279875.5,287196.9375,266048.625,242265.921875,226072.171875,233854.875,273504.1875,0.0
1763252363.6980371,252725.734375,279897.0625,287195.15625,266043.96875,242272.265625,226083.875,233873.28125,273506.78125,0.0
1763252363.6981094,252732.796875,279921.0,287193.90625,266039.875,242275.671875,226098.09375,233887.765625,273501.6875,0.0
1763252363.702474,252728.234375,279903.5,287189.34375,266033.6875,242266.453125,226080.03125,233864.796875,273490.5,0.0
1763252363.704724,252726.09375,279882.65625,287191.84375,266035.75,242265.109375,226071.640625,233851.65625,273495.6875,0.0
1763252363.7070649,252731.359375,279899.375,287191.5,266032.34375,242269.59375,226084.59375,233867.5625,273495.5,0.0
1763252363.7099235,252730.46875,279920.65625,287181.5625,266019.65625,242266.1875,226087.1875,233877.21875,273486.21875,0.0
1763252363.7123375,252725.015625,279904.90625,287179.25,266016.53125,242261.1875,226081.46875,233869.078125,273483.09375,0.0
1763252363.7147143,252722.515625,279880.34375,287184.53125,266022.0625,242259.125,226073.953125,233860.328125,273491.3125,0.0
1763252363.7312796,252722.78125,279885.6875,287181.5625,266016.53125,242258.765625,226073.59375,233863.625,273489.34375,0.0
1763252363.7348695,252724.65625,279912.53125,287173.78125,266004.625,242257.515625,226075.296875,233866.578125,273476.1875,0.0
1763252363.7349403,252726.8125,279910.09375,287175.75,266006.5,242262.171875,226083.34375,233872.84375,273482.5625,0.0
1763252363.7349608,252725.828125,279890.625,287182.46875,266014.03125,242267.078125,226081.375,233869.0,273496.6875,0.0
1763252363.7406547,252723.859375,279884.96875,287179.59375,266009.375,242265.921875,226074.40625,233862.375,273496.59375,0.0
1763252363.7407277,252730.375,279915.65625,287174.15625,266001.78125,242271.109375,226092.90625,233889.65625,273492.65625,0.0
1763252363.742335,252729.9375,279914.40625,287171.03125,265999.09375,242270.03125,226092.734375,233886.515625,273490.0625,0.0
1763252363.7474627,252722.515625,279888.65625,287170.21875,265999.53125,242264.84375,226079.859375,233870.96875,273495.78125,0.0
1763252363.7499468,252721.4375,279879.96875,287172.09375,266000.0,242266.546875,226078.609375,233870.515625,273504.71875,0.0
1763252363.753723,252725.640625,279909.03125,287165.65625,265988.71875,242265.296875,226087.8125,233878.296875,273486.46875,0.0
1763252363.767521,252729.046875,279916.09375,287163.4375,265984.15625,242264.3125,226090.859375,233881.15625,273482.1875,0.0
1763252363.772222,252721.078125,279890.96875,287160.125,265980.75,242258.59375,226081.015625,233865.78125,273480.59375,0.0
1763252363.7722723,252723.40625,279880.15625,287167.09375,265988.90625,242264.84375,226080.578125,233863.8125,273496.40625,0.0
1763252363.7722814,252731.28125,279911.625,287166.375,265986.40625,242272.625,226093.0,233884.015625,273495.875,0.0
1763252363.7755263,252733.421875,279926.1875,287162.25,265980.84375,242274.6875,226099.53125,233893.40625,273489.96875,0.0
1763252363.7756264,252731.546875,279905.625,287163.6875,265981.75,242272.8125,226094.25,233879.8125,273489.15625,0.0
1763252363.7912629,252731.640625,279884.8125,287169.78125,265987.03125,242272.625,226086.390625,233863.453125,273494.25,0.0
1763252363.801236,252740.390625,279909.125,287171.125,265983.0,242278.96875,226097.203125,233885.0,273496.0625,0.0
1763252363.8013413,252746.921875,279932.71875,287167.90625,265975.75,242284.25,226112.765625,233905.296875,273490.15625,0.0
1763252363.80137,252742.453125,279913.0625,287165.9375,265972.53125,242278.265625,226093.625,233881.328125,273483.4375,0.0
1763252363.8042746,252734.21875,279882.375,287164.21875,265969.3125,242267.796875,226071.015625,233852.640625,273477.4375,0.0
1763252363.8043451,252732.53125,279893.5625,287158.5,265962.0,242269.046875,226078.703125,233863.984375,273477.53125,0.0
1763252363.806182,252736.734375,279921.28125,287153.59375,265954.84375,242273.34375,226088.890625,233879.1875,273472.34375,0.0
1763252363.80996,252736.1875,279915.75,287157.0625,265957.875,242280.5,226095.6875,233882.5,273479.96875,0.0
1763252363.817161,252730.03125,279891.15625,287159.21875,265960.75,242283.171875,226089.609375,233873.5625,273488.625,0.0
1763252363.8315072,252730.46875,279894.28125,287156.8125,265956.28125,242283.625,226088.0,233877.3125,273490.25,0.0
1763252363.8315744,252735.203125,279922.25,287150.90625,265947.9375,242285.40625,226098.28125,233896.171875,273483.8125,0.0
1763252363.8428752,252730.828125,279912.34375,287145.625,265941.15625,242281.03125,226095.140625,233883.21875,273473.6875,0.0
1763252363.8429456,252724.296875,279881.3125,287142.3125,265938.9375,242273.875,226080.484375,233862.5625,273472.8125,0.0
1763252363.8455307,252731.453125,279881.6875,287147.6875,265944.46875,242280.21875,226084.78125,233869.078125,273482.8125,0.0
1763252363.8456063,252736.46875,279913.15625,287141.15625,265933.90625,242281.828125,226097.296875,233885.171875,273473.6875,0.0
1763252363.8499627,252735.921875,279917.34375,287140.4375,265930.6875,242281.296875,226094.796875,233880.171875,273468.40625,0.0
1763252363.85607,252735.296875,279892.75,287145.0,265936.59375,242279.515625,226081.46875,233863.09375,273473.34375,0.0
1763252363.8585007,252737.359375,279881.3125,287147.15625,265939.71875,242281.390625,226079.328125,233855.046875,273480.59375,0.0
1763252363.8675172,252741.734375,279911.0,287143.40625,265932.40625,242286.03125,226094.4375,233877.125,273476.375,0.0
1763252363.8699367,252742.453125,279918.59375,287139.5625,265928.28125,242286.9375,226099.625,233886.78125,273477.1875,0.0
1763252363.874938,252742.453125,279899.5625,287144.125,265932.5625,242286.21875,226097.296875,233877.75,273482.09375,0.0
1763252363.8774374,252746.828125,279885.875,287151.4375,265940.53125,242293.640625,226099.078125,233884.546875,273500.34375,0.0
1763252363.8807313,252748.4375,279906.625,287142.0625,265928.625,242293.09375,226104.984375,233895.90625,273494.15625,0.0
1763252363.8808026,252750.40625,279919.125,287135.09375,265920.59375,242291.046875,226107.03125,233890.09375,273481.21875,0.0
1763252363.9047697,252748.703125,279900.71875,287134.375,265920.40625,242289.25,226097.65625,233879.09375,273481.5625,0.0
1763252363.9123232,252751.75,279882.3125,287140.4375,265926.59375,242292.109375,226091.125,233877.125,273491.3125,0.0
1763252363.914955,252762.125,279909.03125,287144.8125,265925.4375,242300.796875,226103.640625,233893.578125,273492.5625,0.0
1763252363.9174483,252765.515625,279930.65625,287139.8125,265915.21875,242299.09375,226106.328125,233896.265625,273481.28125,0.0
1763252363.9199636,252760.78125,279911.0,287135.1875,265910.125,242292.203125,226100.6875,233882.765625,273474.59375,0.0
1763252363.922526,252768.109375,279897.3125,287145.8125,265921.3125,242299.265625,226100.78125,233875.515625,273483.0,0.0
1763252363.936232,252783.9375,279920.75,287155.65625,265927.3125,242312.5,226116.96875,233896.4375,273492.28125,0.0
1763252363.9387333,252788.9375,279944.875,287148.5,265917.03125,242310.359375,226122.953125,233909.5,273483.34375,0.0
1763252363.9411995,252784.921875,279928.0625,287144.375,265914.34375,242303.5625,226109.28125,233896.625,273480.40625,0.0
1763252363.943759,252784.296875,279903.5625,287149.65625,265919.96875,242302.21875,226105.78125,233886.703125,273487.8125,0.0
1763252363.9487715,252789.75,279907.4375,287151.34375,265920.875,242305.96875,226109.359375,233895.640625,273496.40625,0.0
1763252363.9512596,252792.703125,279938.53125,287145.53125,265912.71875,242309.640625,226123.578125,233915.84375,273490.9375,0.0
1763252363.959302,252786.53125,279931.84375,287139.65625,265904.9375,242304.28125,226124.296875,233905.390625,273482.8125,0.0
1763252363.9593723,252786.265625,279907.875,287144.28125,265908.96875,242301.59375,226110.171875,233887.953125,273490.0625,0.0
1763252363.961252,252790.734375,279904.46875,287146.875,265910.75,242303.03125,226098.90625,233886.703125,273497.125,0.0
1763252363.9637465,252794.484375,279936.03125,287140.71875,265900.375,242305.171875,226108.109375,233903.421875,273488.34375,0.0
1763252363.9687726,252796.0,279939.59375,287139.375,265897.34375,242307.859375,226109.984375,233902.875,273487.28125,0.0
1763252363.973508,252795.46875,279917.25,287142.15625,265900.21875,242307.765625,226105.875,233892.0625,273492.84375,0.0
1763252363.9760497,252795.65625,279905.1875,287144.75,265903.15625,242308.828125,226104.09375,233891.4375,273498.5625,0.0
1763252363.981514,252804.765625,279939.96875,287144.65625,265900.9375,242314.296875,226119.90625,233909.59375,273490.6875,0.0
1763252363.9837377,252808.171875,279951.6875,287144.46875,265897.625,242315.1875,226125.546875,233912.0,273484.59375,0.0
1763252363.988856,252802.71875,279926.46875,287142.15625,265894.3125,242309.734375,226120.625,233900.015625,273481.28125,0.0
1763252363.9889,252794.484375,279899.8125,287136.6875,265888.75,242299.1875,226096.75,233869.984375,273472.8125,0.0
1763252363.990716,252799.3125,279929.3125,287136.4375,265886.0,242310.4375,226112.578125,233893.671875,273475.40625,0.0
1763252363.996362,252798.59375,279948.375,287132.59375,265880.09375,242318.21875,226126.078125,233912.265625,273476.375,0.0
1763252363.9987423,252796.28125,279931.84375,287136.59375,265883.65625,242318.046875,226116.609375,233892.328125,273477.71875,0.0
1763252364.0011897,252786.703125,279904.03125,287132.59375,265878.40625,242309.8125,226101.40625,233873.828125,273476.1875,0.0
1763252364.005147,252784.65625,279921.46875,287125.25,265868.90625,242312.953125,226107.9375,233890.90625,273472.96875,0.0
1763252364.0051875,252785.28125,279946.40625,287121.03125,265861.6875,242320.28125,226124.03125,233909.40625,273472.8125,0.0
1763252364.0094569,252781.609375,279932.625,287123.0,265863.65625,242324.484375,226125.28125,233905.921875,273477.90625,0.0
1763252364.0131383,252774.28125,279903.75,287123.46875,265864.71875,242322.78125,226116.421875,233891.171875,273485.3125,0.0
1763252364.0131822,252772.765625,279908.5,287116.9375,265856.9375,242320.734375,226115.078125,233894.296875,273484.25,0.0
1763252364.01496,252777.953125,279934.5,287110.125,265848.0,242320.453125,226122.234375,233911.828125,273476.5625,0.0
1763252364.017441,252770.4375,279917.71875,287103.625,265840.125,242313.125,226113.75,233901.546875,273470.125,0.0
1763252364.0205564,252758.90625,279883.28125,287098.96875,265834.75,242302.40625,226097.203125,233877.84375,273467.96875,0.0
1763252364.0206292,252761.578125,279890.0625,287101.8125,265835.5625,242305.890625,226102.65625,233889.015625,273474.78125,0.0
1763252364.0223732,252765.078125,279922.0,287096.1875,265825.71875,242307.140625,226114.8125,233905.390625,273465.5625,0.0
1763252364.036766,252765.421875,279914.65625,287092.25,265820.625,242300.796875,226104.71875,233890.09375,273453.3125,0.0
1763252364.0368369,252766.328125,279892.9375,287097.4375,265825.65625,242298.015625,226099.078125,233871.3125,273456.09375,0.0
1763252364.0462444,252767.21875,279891.0625,287100.84375,265827.34375,242299.359375,226101.9375,233871.40625,273460.09375,0.0
1763252364.046316,252769.546875,279922.4375,287095.21875,265816.625,242297.921875,226105.25,233885.0,273447.6875,0.0
1763252364.0463493,252768.015625,279924.9375,287092.96875,265813.5,242299.453125,226110.96875,233892.234375,273449.46875,0.0
1763252364.0501716,252765.875,279902.59375,287097.25,265817.96875,242300.34375,226111.515625,233880.96875,273457.34375,0.0
1763252364.0502326,252761.765625,279883.28125,287095.46875,265815.71875,242292.75,226093.265625,233859.15625,273455.09375,0.0
1763252364.0558157,252768.109375,279911.28125,287091.0,265808.21875,242293.90625,226095.0625,233873.734375,273449.75,0.0
1763252364.0680165,252772.9375,279924.40625,287092.15625,265806.40625,242301.234375,226108.015625,233886.703125,273448.3125,0.0
1763252364.0680883,252770.078125,279906.96875,287097.875,265813.03125,242303.921875,226104.796875,233878.03125,273452.875,0.0
1763252364.0703588,252765.96875,279888.90625,287103.34375,265819.03125,242306.953125,226100.953125,233878.65625,273468.59375,0.0
1763252364.070397,252767.390625,279916.09375,287099.9375,265811.34375,242309.546875,226108.296875,233896.796875,273467.96875,0.0
1763252364.0758207,252763.375,279927.53125,287089.03125,265797.21875,242304.640625,226109.90625,233899.390625,273453.21875,0.0
1763252364.0876443,252757.375,279908.9375,287087.875,265797.40625,242301.859375,226104.625,233885.796875,273453.21875,0.0
1763252364.0876815,252761.765625,279891.78125,287094.125,265806.15625,242304.8125,226101.40625,233873.46875,273464.3125,0.0
1763252364.0945003,252763.28125,279905.71875,287088.3125,265798.71875,242304.984375,226100.421875,233886.4375,273465.8125,0.0
1763252364.0945373,252764.984375,279926.03125,287082.0625,265790.875,242304.640625,226107.484375,233900.28125,273462.59375,0.0
1763252364.0945554,252758.71875,279906.0,287078.9375,265788.09375,242299.453125,226105.15625,233891.4375,273456.53125,0.0
1763252364.0983777,252752.90625,279877.1875,287078.9375,265788.53125,242295.515625,226094.078125,233878.390625,273459.21875,0.0
1763252364.1070845,252752.828125,279883.46875,287073.75,265781.65625,242292.921875,226090.5,233878.921875,273456.4375,0.0
1763252364.1114197,252756.046875,279911.71875,287068.21875,265771.09375,242300.4375,226108.296875,233900.28125,273453.125,0.0
1763252364.1114564,252751.390625,279899.65625,287064.28125,265766.71875,242301.140625,226111.6875,233898.328125,273454.46875,0.0
1763252364.1180265,252745.3125,279873.0,287064.90625,265768.4375,242298.546875,226104.0,233885.71875,273464.3125,0.0
1763252364.118075,252744.0625,279873.90625,287063.75,265764.65625,242299.53125,226105.078125,233889.109375,273464.3125,0.0
1763252364.1237876,252746.296875,279906.34375,287056.84375,265753.84375,242302.40625,226120.09375,233908.15625,273456.96875,0.0
1763252364.1305752,252751.21875,279910.28125,287060.78125,265756.25,242307.046875,226130.109375,233912.0,273458.3125,0.0
1763252364.1306467,252746.65625,279885.0625,287061.84375,265757.34375,242301.5,226112.40625,233883.390625,273455.46875,0.0
1763252364.1385348,252738.25,279870.59375,287054.09375,265748.75,242291.046875,226090.3125,233869.796875,273449.1875,0.0
1763252364.1571486,252739.140625,279897.5,287045.125,265736.59375,242288.890625,226096.578125,233885.984375,273437.9375,0.0
1763252364.1573029,252732.265625,279893.5625,287036.75,265728.625,242285.40625,226092.734375,233879.359375,273429.875,0.0
1763252364.157334,252732.34375,279876.21875,287045.40625,265738.46875,242293.546875,226102.03125,233880.96875,273447.3125,0.0
1763252364.160509,252731.546875,279862.4375,287049.625,265743.65625,242298.28125,226096.484375,233880.796875,273459.125,0.0
1763252364.1605816,252736.015625,279891.59375,287047.03125,265738.75,242302.21875,226099.96875,233890.8125,273450.4375,0.0
1763252364.1624775,252739.328125,279908.125,287047.90625,265738.65625,242309.734375,226111.6875,233905.5625,273453.84375,0.0
1763252364.1647053,252738.96875,279891.34375,287053.53125,265743.75,242316.4375,226113.5625,233904.40625,273464.5625,0.0
1763252364.1674361,252738.421875,279874.34375,287058.71875,265749.1875,242321.359375,226110.25,233893.140625,273471.28125,0.0
1763252364.171285,252743.171875,279899.375,287055.5,265742.40625,242323.40625,226116.96875,233902.171875,273460.5625,0.0
1763252364.1801348,252746.03125,279919.40625,287053.1875,265736.25,242327.171875,226129.484375,233913.4375,273455.375,0.0
1763252364.1801784,252737.71875,279898.21875,287049.25,265731.6875,242320.015625,226119.109375,233897.609375,273451.53125,0.0
1763252364.18198,252733.328125,279873.8125,287052.46875,265735.96875,242318.3125,226109.90625,233886.078125,273458.125,0.0
1763252364.1907318,252737.09375,279887.03125,287048.28125,265729.96875,242316.875,226115.4375,233897.875,273454.84375,0.0
1763252364.1951556,252739.140625,279905.8125,287040.03125,265718.28125,242314.734375,226121.796875,233904.40625,273444.1875,0.0
1763252364.1951733,252734.578125,279891.34375,287040.59375,265717.8125,242315.265625,226111.6875,233896.078125,273445.34375,0.0
1763252364.1969664,252730.5625,279869.875,287046.84375,265721.65625,242316.53125,226104.984375,233885.796875,273452.96875,0.0
1763252364.207939,252743.796875,279886.84375,287055.59375,265729.71875,242327.609375,226117.140625,233901.890625,273466.90625,0.0
1763252364.2080247,252749.609375,279917.875,287051.75,265722.8125,242331.453125,226131.453125,233921.75,273461.34375,0.0
1763252364.2097583,252738.15625,279904.125,287044.0625,265713.4375,242324.578125,226122.421875,233910.390625,273451.34375,0.0
1763252364.219339,252739.5,279887.125,287053.28125,265722.8125,242327.609375,226124.921875,233904.765625,273462.875,0.0
1763252364.219411,252743.609375,279890.53125,287055.5,265723.625,242331.453125,226130.546875,233914.0625,273470.5625,0.0
1763252364.223608,252737.53125,279906.09375,287034.6875,265698.59375,242316.703125,226111.953125,233906.453125,273445.53125,0.0
1763252364.2287896,252737.265625,279904.21875,287032.53125,265696.0,242317.859375,226113.125,233903.6875,273446.875,0.0
1763252364.2311652,252733.59375,279881.125,287035.46875,265700.21875,242318.3125,226118.296875,233895.640625,273451.875,0.0
1763252364.2349596,252734.9375,279874.78125,287040.03125,265704.21875,242322.34375,226125.09375,233905.296875,273462.0625,0.0
1763252364.2415414,252742.0,279904.03125,287034.78125,265697.4375,242324.390625,226126.625,233914.421875,273455.625,0.0
1763252364.241633,252735.75,279901.78125,287025.46875,265686.53125,242318.3125,226121.078125,233907.984375,273442.65625,0.0
1763252364.2437267,252736.015625,279883.28125,287032.09375,265690.8125,242320.015625,226125.71875,233901.984375,273448.75,0.0
1763252364.252172,252737.265625,279871.65625,287037.0,265695.125,242323.40625,226127.421875,233900.828125,273457.59375,0.0
1763252364.2580552,252745.40625,279901.25,287034.3125,265691.4375,242326.265625,226126.625,233914.234375,273456.71875,0.0
1763252364.2581265,252742.90625,279912.6875,287028.5,265685.46875,242325.375,226130.203125,233921.484375,273453.84375,0.0
1763252364.2599409,252733.0625,279889.28125,287028.6875,265684.8125,242321.625,226124.390625,233907.890625,273454.46875,0.0
1763252364.271143,252724.921875,279865.9375,287030.9375,265688.6875,242322.34375,226118.390625,233897.515625,273461.28125,0.0
1763252364.2743013,252732.53125,279893.21875,287033.15625,265689.21875,242333.515625,226136.28125,233923.890625,273465.90625,0.0
1763252364.2743723,252737.359375,279914.40625,287030.375,265683.65625,242333.15625,226140.921875,233928.984375,273456.875,0.0
1763252364.2763524,252738.703125,279902.9375,287037.1875,265688.3125,242333.0625,226135.828125,233917.984375,273459.46875,0.0
1763252364.2824373,252738.25,279882.46875,287044.875,265694.5625,242334.578125,226132.078125,233908.15625,273468.40625,0.0
1763252364.2849483,252745.40625,279900.1875,287046.3125,265693.9375,242341.109375,226135.203125,233921.390625,273474.40625,0.0
1763252364.293738,252746.296875,279921.28125,287036.5625,265679.03125,242337.453125,226138.328125,233929.796875,273455.53125,0.0
1763252364.2982008,252742.359375,279905.625,287032.53125,265671.96875,242330.65625,226135.203125,233919.15625,273451.34375,0.0
1763252364.2982917,252743.609375,279881.5,287038.78125,265680.28125,242335.203125,226130.828125,233911.734375,273465.65625,0.0
1763252364.303751,252751.296875,279893.375,287040.3125,265681.4375,242340.578125,226138.59375,233915.484375,273466.8125,0.0
1763252364.3074372,252756.40625,279921.46875,287032.875,265671.875,242340.484375,226147.265625,233927.640625,273456.875,0.0
1763252364.3160765,252754.96875,279912.875,287032.1875,265669.28125,242336.109375,226132.515625,233919.875,273449.8125,0.0
1763252364.3192017,252754.34375,279887.5625,287036.90625,265671.875,242331.71875,226123.3125,233902.609375,273449.8125,0.0
1763252364.3192503,252758.546875,279885.34375,287035.84375,265668.03125,242328.859375,226117.953125,233897.6875,273450.625,0.0
1763252364.3214023,252768.296875,279920.375,287032.53125,265661.3125,242334.578125,226135.296875,233922.28125,273450.28125,0.0
1763252364.3323302,252765.15625,279913.9375,287026.71875,265655.0625,242332.625,226136.71875,233925.140625,273447.5,0.0
1763252364.3355017,252756.046875,279882.65625,287023.875,265653.4375,242324.125,226125.71875,233904.671875,273440.96875,0.0
1763252364.3355737,252756.21875,279874.53125,287028.25,265658.625,242329.9375,226128.40625,233907.703125,273452.96875,0.0
1763252364.3437603,252759.34375,279905.46875,287021.8125,265648.53125,242332.171875,226140.296875,233928.625,273447.9375,0.0
1763252364.3466506,252762.75,279911.0,287020.28125,265647.53125,242332.96875,226133.59375,233923.890625,273446.34375,0.0
1763252364.3466997,252760.953125,279888.8125,287023.9375,265654.78125,242334.5,226124.921875,233911.734375,273458.5,0.0
1763252364.3487601,252757.5625,279869.875,287020.8125,265649.4375,242327.796875,226115.71875,233894.125,273447.84375,0.0
1763252364.3574765,252760.953125,279895.96875,287013.65625,265639.21875,242328.328125,226119.375,233908.15625,273438.125,0.0
1763252364.3615367,252756.046875,279904.21875,287005.96875,265630.28125,242325.46875,226117.40625,233913.34375,273429.625,0.0
1763252364.3616064,252752.28125,279884.53125,287008.40625,265634.9375,242323.234375,226115.171875,233904.578125,273431.9375,0.0
1763252364.363411,252751.03125,279863.0,287012.78125,265640.125,242324.75,226113.125,233898.765625,273441.6875,0.0
1763252364.37495,252753.8125,279881.0625,287006.59375,265630.8125,242324.03125,226112.765625,233905.5625,273435.96875,0.0
1763252364.37774,252754.4375,279898.75,286999.4375,265621.71875,242324.03125,226117.953125,233914.234375,273428.90625,0.0
1763252364.3778486,252748.4375,279879.53125,286999.28125,265621.875,242324.125,226117.765625,233905.5625,273432.375,0.0
1763252364.3799353,252747.09375,279856.28125,287003.65625,265626.71875,242325.28125,226115.171875,233896.0,273441.6875,0.0
1763252364.3887691,252754.25,279875.3125,287002.84375,265622.875,242328.328125,226123.765625,233914.0625,273445.4375,0.0
1763252364.3912687,252759.890625,279902.40625,286999.375,265616.6875,242330.921875,226135.828125,233927.828125,273439.71875,0.0
1763252364.399717,252756.75,279888.5625,286998.90625,265617.25,242330.03125,226131.8125,233919.421875,273442.9375,0.0
1763252364.4073875,252756.125,279868.0,287003.84375,265624.03125,242334.234375,226127.875,233910.84375,273453.3125,0.0
1763252364.4074357,252754.96875,279870.84375,286997.9375,265617.25,242334.40625,226125.09375,233908.25,273449.65625,0.0
1763252364.4074457,252754.703125,279897.9375,286990.59375,265607.59375,242339.328125,226141.90625,233928.0,273446.34375,0.0
1763252364.4099145,252748.625,279887.125,286986.03125,265602.125,242337.890625,226137.890625,233923.171875,273440.875,0.0
1763252364.4212885,252744.0625,279860.46875,286988.8125,265605.78125,242340.03125,226124.296875,233911.90625,273448.5625,0.0
1763252364.425142,252745.046875,279858.0625,286988.71875,265605.53125,242343.96875,226117.046875,233904.21875,273449.75,0.0
1763252364.4251888,252752.828125,279891.96875,286982.28125,265596.9375,242345.671875,226122.59375,233912.265625,273435.0625,0.0
1763252364.434288,252751.921875,279889.71875,286976.65625,265590.15625,242342.453125,226122.6875,233907.171875,273424.78125,0.0
1763252364.43436,252743.96875,279859.84375,286973.4375,265584.34375,242333.875,226109.546875,233887.40625,273421.03125,0.0
1763252364.4367812,252749.515625,279854.75,286981.03125,265591.5,242341.109375,226110.609375,233890.359375,273434.96875,0.0
1763252364.4368515,252754.875,279885.6875,286977.46875,265585.3125,242345.765625,226123.21875,233911.90625,273431.6875,0.0
1763252364.4474952,252749.421875,279887.3125,286970.3125,265577.71875,242342.453125,226122.953125,233913.515625,273424.53125,0.0
1763252364.456597,252748.171875,279867.8125,286976.5625,265583.25,242342.625,226118.21875,233905.5625,273433.375,0.0
1763252364.4566455,252753.984375,279859.6875,286987.28125,265594.625,242349.875,226116.78125,233902.4375,273445.8125,0.0
1763252364.4589186,252757.109375,279887.125,286982.90625,265586.03125,242350.59375,226119.28125,233910.125,273436.59375,0.0
1763252364.4589643,252753.09375,279899.09375,286978.4375,265578.4375,242349.78125,226128.765625,233916.921875,273430.34375,0.0
1763252364.4649289,252744.859375,279875.5,286977.46875,265578.0,242344.6875,226120.890625,233899.65625,273426.3125,0.0
1763252364.4692943,252742.90625,279855.3125,286983.28125,265586.84375,242349.96875,226111.234375,233893.84375,273438.90625,0.0
1763252364.4693835,252752.734375,279886.15625,286990.25,265592.375,242365.25,226129.21875,233919.59375,273449.28125,0.0
1763252364.4749382,252750.765625,279904.84375,286982.90625,265581.28125,242363.640625,226132.34375,233925.765625,273436.875,0.0
1763252364.4942908,252745.578125,279886.84375,286980.59375,265577.09375,242360.421875,226120.625,233912.171875,273433.28125,0.0
1763252364.4943626,252742.71875,279861.28125,286982.65625,265579.0625,242360.15625,226116.609375,233900.015625,273433.375,0.0
1763252364.4961889,252749.875,279876.03125,286981.3125,265576.1875,242362.921875,226115.53125,233905.921875,273436.40625,0.0
1763252364.4992952,252749.78125,279899.28125,286971.03125,265562.6875,242360.953125,226123.671875,233919.15625,273427.125,0.0
1763252364.4993856,252743.609375,279884.28125,286965.3125,265555.28125,242354.4375,226117.765625,233908.15625,273421.21875,0.0
1763252364.5012474,252739.59375,279858.25,286966.28125,265556.53125,242350.046875,226103.828125,233890.71875,273422.65625,0.0
1763252364.522392,252745.140625,279865.40625,286967.09375,265555.28125,242352.90625,226109.28125,233896.53125,273424.0625,0.0
1763252364.5225012,252750.671875,279897.78125,286962.09375,265547.59375,242356.046875,226123.125,233914.59375,273416.46875,0.0
1763252364.522534,252752.015625,279894.375,286962.78125,265547.40625,242359.703125,226127.609375,233913.34375,273417.625,0.0
1763252364.54877,252754.96875,279874.25,286971.65625,265556.71875,242365.25,226125.375,233903.0625,273429.0,0.0
1763252364.5515294,252753.0,279866.03125,286969.40625,265553.59375,242364.796875,226117.40625,233904.9375,273432.5625,0.0
1763252364.5516512,252753.625,279892.9375,286960.84375,265542.75,242364.453125,226127.328125,233921.65625,273424.78125,0.0
1763252364.556239,252751.125,279885.78125,286954.75,265537.75,242361.671875,226120.984375,233915.21875,273420.84375,0.0
1763252364.5585308,252752.46875,279860.125,286959.65625,265541.96875,242359.0,226109.453125,233900.640625,273426.9375,0.0
1763252364.561319,252754.34375,279851.375,286962.625,265542.59375,242360.0625,226108.109375,233897.421875,273432.375,0.0
1763252364.5637867,252753.8125,279876.5625,286953.0625,265528.375,242358.453125,226114.8125,233911.734375,273421.5625,0.0
1763252364.5660684,252756.125,279885.96875,286949.84375,265525.25,242358.546875,226123.671875,233916.921875,273418.4375,0.0
1763252364.5687397,252751.390625,279864.0625,286950.28125,265527.03125,242355.15625,226117.046875,233902.34375,273420.84375,0.0
1763252364.5712948,252749.609375,279847.15625,286951.96875,265529.4375,242356.21875,226109.90625,233893.9375,273426.125,0.0
1763252364.57374,252752.734375,279872.8125,286945.0,265520.0625,242357.390625,226117.953125,233909.3125,273419.96875,0.0
1763252364.576241,252749.25,279884.1875,286937.84375,265511.1875,242357.109375,226128.671875,233917.71875,273412.71875,0.0
1763252364.5837407,252741.375,279863.875,286937.21875,265511.46875,242357.390625,226129.5625,233906.90625,273414.59375,0.0
1763252364.5887716,252744.421875,279846.34375,286945.28125,265519.78125,242361.859375,226122.234375,233901.71875,273427.03125,0.0
1763252364.5943067,252745.578125,279862.53125,286937.125,265507.1875,242356.671875,226116.15625,233900.5625,273405.84375,0.0
1763252364.5943785,252748.0,279884.0,286932.5,265498.40625,242358.28125,226127.25,233911.828125,273398.6875,0.0
1763252364.5964649,252744.953125,279866.21875,286934.1875,265498.875,242358.546875,226123.046875,233903.6875,273399.75,0.0
1763252364.5992756,252747.546875,279844.46875,286943.3125,265509.59375,242366.953125,226118.84375,233899.296875,273414.875,0.0
1763252364.5993478,252751.21875,279856.28125,286940.8125,265506.375,242371.421875,226121.875,233910.5625,273417.5625,0.0
1763252364.6013477,252757.828125,279887.9375,286937.75,265501.28125,242379.015625,226142.796875,233935.96875,273416.125,0.0
1763252364.6037447,252759.53125,279883.90625,286942.9375,265507.0,242386.890625,226156.125,233944.1875,273428.28125,0.0
1763252364.6087377,252750.953125,279852.71875,286939.46875,265503.25,242377.859375,226130.828125,233910.390625,273424.15625,0.0
1763252364.615548,252744.234375,279843.3125,286927.03125,265487.78125,242370.171875,226114.109375,233900.640625,273413.15625,0.0
1763252364.6156197,252743.796875,279863.0625,286913.53125,265468.65625,242366.953125,226116.0625,233913.78125,273401.90625,0.0
1763252364.6174188,252746.296875,279857.34375,286911.3125,265463.90625,242363.640625,226111.6875,233900.828125,273396.625,0.0
1763252364.6198103,252751.578125,279838.9375,286917.375,265472.9375,242365.703125,226111.78125,233895.1875,273407.1875,0.0
1763252364.623649,252760.59375,279842.5,286924.625,265483.21875,242374.8125,226118.65625,233903.328125,273419.6875,0.0
1763252364.6314468,252764.359375,279873.96875,286918.8125,265473.8125,242377.859375,226129.296875,233921.125,273410.5,0.0
1763252364.639973,252759.703125,279873.1875,286913.625,265465.78125,242376.78125,226126.4375,233919.0625,273403.96875,0.0
1763252364.6479323,252757.921875,279852.875,286918.28125,265472.84375,242378.390625,226123.671875,233904.21875,273407.1875,0.0
1763252364.647978,252758.8125,279842.78125,286922.28125,265474.0,242379.28125,226114.375,233894.5625,273412.1875,0.0
1763252364.6525688,252755.421875,279865.40625,286912.1875,265458.0,242375.0,226118.390625,233907.4375,273396.1875,0.0
1763252364.654744,252757.46875,279878.1875,286914.25,265461.125,242380.0,226131.265625,233918.53125,273396.4375,0.0
1763252364.6573324,252761.859375,279865.65625,286925.78125,265474.1875,242389.84375,226133.765625,233912.53125,273410.125,0.0
1763252364.6605513,252767.3125,279856.46875,286939.625,265489.21875,242401.1875,226133.859375,233913.078125,273426.65625,0.0
1763252364.6606472,252769.09375,279882.3125,286934.8125,265482.21875,242402.890625,226144.765625,233930.953125,273421.46875,0.0
1763252364.6624656,252763.375,279889.375,286920.6875,265464.8125,242394.84375,226145.21875,233928.09375,273403.96875,0.0
1763252364.6647172,252759.890625,279870.40625,286923.625,265466.3125,242392.078125,226138.15625,233917.8125,273408.15625,0.0
1763252364.66755,252755.953125,279848.25,286927.65625,265470.25,242388.859375,226128.5,233906.453125,273412.28125,0.0
1763252364.6712928,252756.3125,279865.125,286921.84375,265463.09375,242389.921875,226130.46875,233916.65625,273409.40625,0.0
1763252364.6855583,252756.3125,279884.625,286911.75,265451.9375,242388.046875,226134.578125,233922.375,273399.65625,0.0
1763252364.685632,252749.6875,279867.375,286907.09375,265447.4375,242382.6875,226127.328125,233911.828125,273398.875,0.0
1763252364.6874826,252745.3125,279840.8125,286910.75,265452.46875,242380.8125,226117.328125,233900.5625,273410.84375,0.0
1763252364.6899474,252743.53125,279842.15625,286899.6875,265440.21875,242371.234375,226105.609375,233895.1875,273397.4375,0.0
1763252364.6925764,252751.390625,279871.84375,286892.625,265430.46875,242374.640625,226124.03125,233917.640625,273389.46875,0.0
1763252364.6967592,252753.0,279866.28125,286893.6875,265431.28125,242374.1875,226119.5625,233905.203125,273390.90625,0.0
1763252364.6968393,252748.4375,279838.3125,286893.3125,265431.09375,242367.84375,226101.40625,233886.78125,273394.84375,0.0
1763252364.7099628,252755.59375,279846.28125,286896.28125,265431.90625,242373.75,226105.96875,233901.625,273401.46875,0.0
1763252364.7130444,252756.125,279874.78125,286887.0625,265417.84375,242372.40625,226117.953125,233916.296875,273389.65625,0.0
1763252364.713117,252754.34375,279873.1875,286888.78125,265416.0625,242372.765625,226122.6875,233913.078125,273389.46875,0.0
1763252364.717518,252750.671875,279849.40625,286893.5,265420.09375,242370.53125,226117.765625,233898.140625,273393.84375,0.0
1763252364.7198372,252744.234375,279838.125,286886.53125,265409.8125,242361.859375,226108.5625,233882.765625,273382.21875,0.0
1763252364.7262087,252746.65625,279867.8125,286878.5,265397.75,242361.140625,226115.078125,233898.234375,273371.15625,0.0
1763252364.7293012,252740.9375,279863.0,286871.0625,265388.4375,242352.90625,226107.484375,233893.40625,273364.34375,0.0
1763252364.7293727,252743.53125,279844.375,286880.0,265397.21875,242356.3125,226113.03125,233890.09375,273375.15625,0.0
1763252364.7312047,252746.921875,279832.84375,286884.75,265402.65625,242358.8125,226107.03125,233883.21875,273381.4375,0.0
1763252364.7498999,252750.40625,279861.8125,286879.28125,265395.5,242359.4375,226108.46875,233891.078125,273369.34375,0.0
1763252364.7556045,252750.5,279874.0625,286879.65625,265395.3125,242364.984375,226121.875,233903.78125,273369.96875,0.0
1763252364.7556756,252744.421875,279853.5,286881.71875,265397.375,242364.71875,226116.78125,233892.234375,273373.1875,0.0
1763252364.7575393,252742.90625,279837.5,286886.25,265401.84375,242368.921875,226111.859375,233882.5,273383.5625,0.0
1763252364.7599642,252743.4375,279860.65625,286880.4375,265393.28125,242371.875,226117.671875,233899.484375,273379.625,0.0
1763252364.7623785,252740.390625,279872.90625,286873.21875,265384.59375,242371.59375,226118.03125,233908.0625,273371.9375,0.0
1763252364.764974,252731.984375,279851.375,286871.34375,265383.96875,242369.984375,226114.453125,233896.53125,273371.0625,0.0
1763252364.768798,252727.703125,279826.59375,286871.0625,265383.15625,242367.9375,226110.171875,233885.71875,273376.6875,0.0
1763252364.7755673,252735.390625,279848.25,286869.28125,265378.15625,242370.53125,226117.765625,233901.453125,273377.5,0.0
1763252364.7756393,252735.203125,279866.125,286859.4375,265366.625,242367.046875,226123.3125,233917.8125,273370.875,0.0
1763252364.7841268,252732.890625,279850.375,286858.0,265365.1875,242362.03125,226116.421875,233904.578125,273368.5625,0.0
1763252364.7841983,252735.125,279826.25,286865.96875,265375.9375,242362.03125,226110.078125,233893.140625,273379.90625,0.0
1763252364.7860527,252739.5,279839.03125,286867.75,265376.71875,242368.296875,226117.5,233905.203125,273385.8125,0.0
1763252364.7924528,252737.890625,279865.40625,286860.25,265364.21875,242368.375,226131.890625,233917.359375,273377.59375,0.0
1763252364.796831,252738.875,279860.9375,286865.25,265366.90625,242372.3125,226140.296875,233924.15625,273385.4375,0.0
1763252364.7969277,252733.328125,279831.0625,286865.6875,265367.875,242368.921875,226120.453125,233905.828125,273391.0,0.0
1763252364.8049712,252737.71875,279833.40625,286867.03125,265366.53125,242371.515625,226114.8125,233900.5625,273391.25,0.0
1763252364.8093188,252736.015625,279857.96875,286855.875,265351.25,242369.625,226125.90625,233912.625,273372.9375,0.0
1763252364.809392,252731.8125,279850.1875,286849.25,265344.1875,242366.59375,226123.484375,233905.390625,273365.96875,0.0
1763252364.8172045,252731.984375,279829.1875,286855.25,265352.21875,242369.453125,226118.65625,233895.015625,273375.71875,0.0
1763252364.8196864,252737.359375,279826.59375,286861.3125,265357.78125,242375.265625,226116.0625,233893.21875,273382.5,0.0
1763252364.8236296,252742.625,279857.1875,286856.84375,265348.84375,242381.078125,226130.546875,233914.953125,273378.9375,0.0
1763252364.8341436,252745.9375,279867.46875,286861.6875,265350.96875,242389.484375,226147.890625,233929.875,273383.5625,0.0
1763252364.8341923,252740.65625,279844.65625,286866.0625,265355.71875,242386.4375,226134.125,233913.078125,273385.4375,0.0
1763252364.836206,252743.171875,279832.0625,286869.8125,265361.0,242384.65625,226119.734375,233894.203125,273383.65625,0.0
1763252364.838755,252754.171875,279861.5625,286865.96875,265354.1875,242388.765625,226125.09375,233913.15625,273375.34375,0.0
1763252364.8474972,252744.6875,279861.75,286851.03125,265335.6875,242381.34375,226118.21875,233912.453125,273358.375,0.0
1763252364.8505836,252740.9375,279841.53125,286852.375,265336.9375,242381.078125,226112.765625,233900.28125,273361.59375,0.0
1763252364.8506567,252745.140625,279826.34375,286859.4375,265344.53125,242384.921875,226111.421875,233896.359375,273373.125,0.0
1763252364.8523388,252753.625,279854.6875,286861.21875,265344.09375,242390.828125,226122.421875,233911.734375,273372.03125,0.0
1763252364.863742,252747.734375,279869.5,286854.4375,265333.90625,242391.53125,226133.859375,233924.875,273366.40625,0.0
1763252364.8680599,252742.90625,279851.09375,286855.34375,265334.71875,242390.546875,226131.625,233913.703125,273367.03125,0.0
1763252364.8681304,252740.65625,279828.5625,286859.875,265341.875,242391.09375,226120.890625,233895.453125,273375.15625,0.0
1763252364.8712716,252749.15625,279851.53125,286862.125,265342.9375,242398.421875,226135.109375,233917.359375,273381.59375,0.0
1763252364.8855515,252752.828125,279873.09375,286856.3125,265334.875,242397.265625,226142.0,233932.296875,273374.0,0.0
1763252364.8856213,252743.609375,279851.53125,286849.875,265327.5625,242388.9375,226130.734375,233914.59375,273368.03125,0.0
1763252364.8943112,252744.6875,279832.15625,286857.5625,265334.25,242390.015625,226129.75,233902.609375,273377.9375,0.0
1763252364.8943832,252747.90625,279842.25,286855.34375,265329.15625,242390.28125,226135.65625,233912.890625,273381.875,0.0
1763252364.8962889,252746.921875,279867.53125,286847.1875,265317.375,242389.390625,226138.234375,233928.09375,273374.46875,0.0
1763252364.8982756,252742.71875,279857.625,286846.03125,265315.5,242388.046875,226132.78125,233918.890625,273371.875,0.0
1763252364.9011412,252734.578125,279827.84375,286845.21875,265316.84375,242383.21875,226121.796875,233898.859375,273374.375,0.0
1763252364.910624,252735.65625,279828.125,286845.59375,265316.125,242382.6875,226114.28125,233896.078125,273374.28125,0.0
1763252364.9106963,252743.96875,279863.78125,286845.75,265312.90625,242389.75,226134.046875,233927.734375,273378.46875,0.0
1763252364.9149635,252741.828125,279859.0625,286840.9375,265309.21875,242388.046875,226138.953125,233931.484375,273378.75,0.0
1763252364.9174657,252731.546875,279826.34375,286836.375,265305.28125,242378.125,226124.65625,233906.640625,273375.15625,0.0
1763252364.9215715,252731.453125,279822.5,286837.90625,265307.25,242380.0,226124.109375,233909.765625,273382.3125,0.0
1763252364.9216716,252738.703125,279857.1875,286835.84375,265302.34375,242386.984375,226142.4375,233938.109375,273381.78125,0.0
1763252364.9283316,252740.390625,279857.8125,286832.625,265297.4375,242385.28125,226135.828125,233932.390625,273374.28125,0.0
1763252364.93794,252737.359375,279833.40625,286834.21875,265298.3125,242380.09375,226132.515625,233909.40625,273366.125,0.0
1763252364.937987,252739.328125,279817.46875,286838.15625,265303.96875,242379.375,226115.4375,233892.953125,273372.75,0.0
1763252364.9477549,252749.15625,279849.3125,286836.65625,265299.9375,242384.65625,226128.671875,233915.671875,273370.25,0.0
1763252364.9478507,252746.296875,279857.96875,286828.6875,265288.65625,242381.609375,226136.546875,233922.28125,273361.75,0.0
1763252364.9528844,252746.296875,279842.34375,286835.65625,265295.46875,242385.28125,226137.796875,233916.03125,273371.5,0.0
1763252364.9529572,252743.796875,279819.625,286836.46875,265296.53125,242381.25,226123.84375,233900.46875,273376.5,0.0
1763252364.957557,252750.5,279846.34375,286832.4375,265289.375,242383.484375,226127.953125,233912.359375,273370.625,0.0
1763252364.9597063,252760.875,279876.21875,286836.90625,265291.25,242393.859375,226147.265625,233933.90625,273372.5,0.0
1763252364.9619997,252752.015625,279855.375,286834.0625,265288.03125,242388.5,226140.03125,233920.21875,273370.34375,0.0
1763252364.971275,252739.046875,279821.59375,286830.03125,265285.0,242380.265625,226119.28125,233894.65625,273372.9375,0.0
1763252364.9753015,252745.484375,279844.5625,286832.0,265285.28125,242389.921875,226129.921875,233912.453125,273377.9375,0.0
1763252364.9753892,252749.25,279871.03125,286828.15625,265278.46875,242393.234375,226144.765625,233927.921875,273367.75,0.0
1763252364.9939306,252748.796875,279857.96875,286829.65625,265280.25,242392.34375,226140.125,233920.765625,273369.53125,0.0
1763252364.9939702,252753.53125,279839.03125,286839.25,265289.65625,242397.265625,226138.875,233913.96875,273383.125,0.0
1763252364.998082,252754.515625,279845.1875,286834.40625,265282.9375,242396.09375,226136.453125,233918.609375,273378.9375,0.0
1763252364.9981527,252764.0,279880.78125,286833.59375,265279.8125,242401.734375,226154.609375,233940.703125,273375.875,0.0
1763252364.998183,252760.59375,279869.59375,286831.28125,265278.28125,242397.890625,226150.484375,233933.09375,273373.90625,0.0
1763252364.998202,252744.953125,279830.71875,286823.21875,265270.875,242383.3125,226127.15625,233904.21875,273366.0625,0.0
1763252365.0059712,252743.4375,279828.03125,286821.09375,265267.75,242383.484375,226120.453125,233902.875,273368.28125,0.0
1763252365.0087523,252749.515625,279863.625,286820.625,265261.40625,242393.140625,226141.453125,233927.828125,273361.21875,0.0
1763252365.0112965,252755.59375,279872.71875,286831.53125,265269.71875,242407.0,226153.265625,233939.453125,273374.375,0.0
1763252365.0137632,252753.890625,279847.6875,286832.0,265271.9375,242405.125,226147.1875,233924.0625,273373.84375,0.0
1763252365.0222309,252751.65625,279835.375,286824.3125,265263.90625,242397.796875,226147.09375,233913.78125,273368.03125,0.0
1763252365.0289176,252761.5,279873.8125,286825.28125,265261.75,242406.640625,226168.1875,233942.75,273369.90625,0.0
1763252365.0289388,252761.5,279874.78125,286820.90625,265257.65625,242398.953125,226148.609375,233927.640625,273357.46875,0.0
1763252365.0429308,252750.5,279838.125,286812.59375,265251.21875,242380.1875,226110.53125,233888.390625,273345.75,0.0
1763252365.0429788,252749.6875,279820.78125,286813.84375,265251.5625,242378.3125,226106.5,233883.84375,273351.375,0.0
1763252365.0528936,252757.65625,279853.5,286810.28125,265245.46875,242384.46875,226123.40625,233907.0,273347.46875,0.0
1763252365.0529623,252759.265625,279868.625,286808.03125,265241.5625,242391.625,226136.1875,233916.921875,273345.3125,0.0
1763252365.0574813,252750.765625,279841.09375,286803.125,265237.78125,242386.265625,226129.5625,233904.40625,273346.375,0.0
1763252365.060603,252749.78125,279819.09375,286805.96875,265242.1875,242385.640625,226123.21875,233896.359375,273355.21875,0.0
1763252365.0606773,252757.828125,279843.59375,286806.34375,265240.21875,242390.828125,226133.859375,233911.90625,273356.46875,0.0
1763252365.0624535,252762.125,279864.5,286805.34375,265236.53125,242396.71875,226146.375,233926.578125,273354.4375,0.0
1763252365.0649781,252759.703125,279848.15625,286806.96875,265238.5,242397.890625,226142.09375,233918.4375,273357.46875,0.0
1763252365.067475,252760.875,279827.59375,286816.09375,265248.25,242402.625,226138.15625,233910.484375,273369.53125,0.0
1763252365.0712912,252764.796875,279842.875,286814.28125,265244.5,242405.9375,226144.59375,233924.25,273371.5,0.0
1763252365.074952,252767.21875,279868.0,286809.8125,265239.03125,242408.34375,226159.609375,233943.828125,273368.90625,0.0
1763252365.0830295,252762.296875,279853.5,286808.5625,265237.53125,242405.84375,226160.59375,233936.9375,273365.5,0.0
1763252365.0831006,252755.6875,279818.71875,286806.15625,265234.84375,242396.1875,226128.046875,233903.234375,273361.3125,0.0
1763252365.0960567,252759.53125,279826.59375,286806.96875,265236.09375,242401.546875,226130.546875,233911.375,273368.46875,0.0
1763252365.1014402,252759.4375,279853.0625,286799.4375,265225.8125,242403.421875,226142.53125,233929.609375,273362.90625,0.0
1763252365.101493,252754.703125,279841.625,286796.6875,265221.15625,242400.5625,226131.8125,233921.203125,273360.25,0.0
1763252365.1062663,252758.546875,279823.125,286806.5,265231.53125,242408.078125,226134.484375,233916.734375,273371.40625,0.0
1763252365.1087613,252764.171875,279826.15625,286808.125,265232.0625,242413.53125,226140.828125,233921.390625,273372.65625,0.0
1763252365.1143072,252764.09375,279853.59375,286797.40625,265217.84375,242414.609375,226155.140625,233942.125,273363.28125,0.0
1763252365.11438,252758.546875,279846.625,286791.21875,265211.34375,242413.53125,226151.75,233935.78125,273356.40625,0.0
1763252365.1163526,252750.671875,279818.65625,286789.71875,265210.4375,242408.53125,226135.015625,233912.984375,273356.3125,0.0
1763252365.1187477,252750.3125,279810.25,286789.71875,265209.8125,242410.21875,226136.359375,233908.15625,273358.90625,0.0
1763252365.1224923,252756.484375,279842.59375,286786.3125,265203.8125,242416.921875,226151.75,233935.515625,273358.1875,0.0
1763252365.131523,252760.59375,279852.0,286787.90625,265205.53125,242422.921875,226157.546875,233950.4375,273366.59375,0.0
1763252365.131616,252760.6875,279830.1875,286790.5,265210.875,242417.375,226142.09375,233927.921875,273367.65625,0.0
1763252365.1364033,252750.765625,279805.78125,286784.78125,265206.3125,242406.921875,226130.46875,233906.453125,273360.25,0.0
1763252365.1484764,252746.75,279828.9375,286774.5,265191.75,242404.046875,226129.484375,233922.90625,273352.5625,0.0
1763252365.1512775,252746.125,279841.71875,286772.09375,265186.84375,242407.546875,226139.21875,233936.59375,273352.09375,0.0
1763252365.1537592,252742.546875,279821.40625,286774.40625,265188.4375,242408.34375,226138.59375,233924.15625,273355.84375,0.0
1763252365.156237,252736.28125,279798.15625,286773.15625,265187.375,242406.640625,226129.296875,233910.296875,273365.0625,0.0
1763252365.158758,252740.125,279820.6875,286767.875,265178.78125,242412.640625,226143.78125,233930.59375,273361.75,0.0
1763252365.161408,252739.5,279837.78125,286759.3125,265168.0625,242412.1875,226151.296875,233942.125,273356.5625,0.0
1763252365.186828,252734.140625,279819.34375,286756.53125,265166.4375,242406.921875,226147.625,233930.953125,273355.21875,0.0
1763252365.186901,252739.765625,279802.5625,286767.53125,265178.875,242412.09375,226147.71875,233923.359375,273369.53125,0.0
1763252365.188763,252745.3125,279818.65625,286767.4375,265177.53125,242413.4375,226150.40625,233929.875,273368.03125,0.0
1763252365.191318,252756.125,279846.90625,286767.625,265175.375,242416.65625,226162.03125,233945.34375,273364.625,0.0
1763252365.1937585,252757.5625,279835.8125,286771.09375,265178.96875,242417.5625,226160.421875,233937.578125,273367.3125,0.0
1763252365.1961017,252750.765625,279809.0625,286772.34375,265180.03125,242415.953125,226153.4375,233922.453125,273365.875,0.0
1763252365.2013252,252759.34375,279822.21875,286778.0,265183.96875,242421.9375,226155.3125,233929.796875,273369.28125,0.0
1763252365.203761,252764.796875,279854.40625,286773.875,265175.125,242423.71875,226168.734375,233942.84375,273359.0625,0.0
1763252365.2062285,252767.9375,279853.15625,286779.59375,265181.65625,242427.921875,226171.59375,233939.453125,273367.03125,0.0
1763252365.2109616,252763.28125,279823.75,286779.0625,265179.59375,242419.078125,226148.96875,233918.4375,273358.8125,0.0
1763252365.2143233,252763.546875,279817.75,286777.1875,265175.125,242419.15625,226143.25,233916.203125,273360.3125,0.0
1763252365.2144132,252770.53125,279849.9375,286773.96875,265168.5,242425.875,226160.234375,233933.90625,273351.9375,0.0
1763252365.2187624,252775.796875,279854.84375,286778.4375,265172.09375,242430.15625,226165.328125,233938.203125,273352.28125,0.0
1763252365.2213037,252775.53125,279829.28125,286781.9375,265175.3125,242425.59375,226147.625,233918.265625,273353.625,0.0
1763252365.2237663,252782.953125,279819.53125,286786.21875,265179.5,242428.46875,226145.03125,233921.125,273361.40625,0.0
1763252365.2267263,252792.515625,279851.53125,286783.0,265173.875,242433.375,226157.203125,233941.421875,273357.65625,0.0
1763252365.226775,252791.984375,279855.5625,286778.53125,265169.40625,242432.484375,226157.46875,233939.09375,273351.65625,0.0
1763252365.228766,252788.5,279833.03125,286780.125,265171.09375,242429.53125,226152.546875,233922.28125,273350.9375,0.0
1763252365.2372715,252791.453125,279819.0,286781.84375,265171.625,242428.90625,226151.75,233915.21875,273360.59375,0.0
1763252365.2415655,252797.171875,279843.21875,286772.28125,265156.78125,242423.8125,226150.578125,233926.03125,273351.3125,0.0
1763252365.2416303,252793.59375,279851.46875,286761.0,265144.09375,242421.84375,226151.109375,233936.234375,273343.78125,0.0
1763252365.2537625,252789.21875,279831.25,286762.0625,265146.875,242422.828125,226145.484375,233924.609375,273346.28125,0.0
1763252365.2568502,252787.609375,279812.84375,286767.53125,265155.375,242425.78125,226141.640625,233916.828125,273356.21875,0.0
1763252365.2569268,252789.65625,279834.46875,286763.59375,265150.1875,242426.3125,226147.890625,233929.171875,273351.75,0.0
1763252365.2587497,252791.984375,279854.84375,286762.0,265147.9375,242428.28125,226156.75,233943.03125,273349.15625,0.0
1763252365.2800004,252795.828125,279844.5625,286771.03125,265157.6875,242434.28125,226163.71875,233945.171875,273356.40625,0.0
1763252365.2856405,252798.875,279825.4375,286780.9375,265166.09375,242436.953125,226160.59375,233931.84375,273365.5,0.0
1763252365.285712,252798.328125,279838.125,286778.15625,265161.09375,242437.84375,226162.921875,233938.640625,273367.9375,0.0
1763252365.287448,252791.796875,279855.84375,286761.71875,265141.84375,242427.921875,226158.53125,233939.453125,273351.03125,0.0
1763252365.289971,252786.265625,279840.46875,286755.8125,265134.71875,242416.03125,226150.40625,233920.3125,273338.0625,0.0
1763252365.292424,252783.21875,279816.0625,286760.46875,265138.5625,242417.015625,226145.390625,233908.6875,273347.09375,0.0
1763252365.294763,252784.5625,279821.40625,286760.90625,265136.5,242420.59375,226140.921875,233916.5625,273351.75,0.0
1763252365.2974963,252789.75,279854.9375,286758.0625,265128.0,242425.15625,226153.796875,233938.734375,273342.4375,0.0
1763252365.3005233,252789.65625,279848.3125,286758.0625,265128.09375,242426.40625,226154.15625,233935.421875,273344.78125,0.0
1763252365.3005943,252780.71875,279815.96875,286755.71875,265127.8125,242421.9375,226138.515625,233914.953125,273345.84375,0.0
1763252365.3023248,252787.0625,279819.96875,286763.40625,265136.0625,242434.546875,226143.875,233924.25,273362.03125,0.0
1763252365.3087423,252786.96875,279848.59375,286752.6875,265122.5625,242433.640625,226154.15625,233939.890625,273352.09375,0.0
1763252365.315575,252781.171875,279841.71875,286742.9375,265113.25,242427.84375,226149.421875,233935.421875,273342.96875,0.0
1763252365.3156457,252771.953125,279813.90625,286741.59375,265113.6875,242421.3125,226134.484375,233914.421875,273343.875,0.0
1763252365.3242877,252769.984375,279802.375,286741.4375,265114.15625,242417.46875,226124.828125,233901.984375,273347.8125,0.0
1763252365.3243616,252769.0,279824.53125,286729.34375,265098.75,242413.078125,226132.078125,233912.984375,273336.1875,0.0
1763252365.3305025,252766.59375,279828.5625,286724.0,265092.40625,242415.5,226146.203125,233923.4375,273333.5,0.0
1763252365.3305497,252763.28125,279805.78125,286724.53125,265093.125,242411.296875,226134.9375,233912.71875,273333.5,0.0
1763252365.33998,252759.265625,279789.21875,286724.34375,265091.34375,242409.6875,226129.84375,233905.109375,273337.15625,0.0
1763252365.3423767,252760.328125,279818.65625,286718.53125,265082.125,242413.984375,226148.53125,233929.703125,273337.53125,0.0
1763252365.3449736,252763.109375,279839.5625,286715.9375,265078.03125,242420.328125,226167.390625,233949.109375,273339.125,0.0
1763252365.349311,252762.296875,279822.3125,286720.0625,265081.25,242418.09375,226160.59375,233928.09375,273334.40625,0.0
1763252365.3493824,252751.21875,279792.34375,286718.8125,265080.625,242408.96875,226133.328125,233904.578125,273336.71875,0.0
1763252365.3521929,252755.5,279816.125,286721.21875,265080.78125,242415.5,226143.78125,233920.3125,273337.96875,0.0
1763252365.3598893,252754.796875,279831.34375,286715.5,265068.0,242410.765625,226147.71875,233921.921875,273316.6875,0.0
1763252365.3793266,252754.96875,279818.8125,286722.65625,265072.46875,242413.796875,226152.09375,233922.1875,273327.59375,0.0
1763252365.3793976,252756.125,279801.03125,286734.09375,265085.875,242421.671875,226150.84375,233917.28125,273345.40625,0.0
1763252365.381489,252760.15625,279816.59375,286736.15625,265087.3125,242429.09375,226156.75,233929.171875,273349.5,0.0
1763252365.381557,252760.78125,279840.375,286729.875,265078.75,242428.1875,226161.578125,233934.984375,273335.75,0.0
1763252365.3838425,252760.59375,279832.78125,286733.375,265082.75,242434.28125,226165.25,233935.609375,273344.3125,0.0
1763252365.3838573,252759.625,279809.34375,286741.96875,265091.96875,242441.34375,226157.46875,233930.953125,273362.125,0.0
1763252365.388805,252756.9375,279810.78125,286736.96875,265086.25,242440.265625,226158.0,233934.890625,273359.34375,0.0
1763252365.3912847,252758.71875,279835.4375,286725.5,265073.03125,242437.671875,226163.1875,233948.84375,273348.53125,0.0
1763252365.3972807,252756.3125,279824.90625,286721.21875,265067.375,242432.484375,226155.5,233939.8125,273339.3125,0.0
1763252365.4006183,252756.84375,279799.59375,286724.4375,265070.34375,242430.609375,226144.859375,233922.109375,273339.3125,0.0
1763252365.4006915,252763.546875,279802.5625,286729.53125,265073.8125,242437.578125,226148.078125,233927.203125,273349.59375,0.0
1763252365.4062319,252766.234375,279832.0625,286721.5,265062.71875,242437.40625,226155.234375,233941.6875,273340.3125,0.0
1763252365.4206064,252760.6875,279824.625,286712.625,265053.625,242427.390625,226142.53125,233926.484375,273327.4375,0.0
1763252365.4206781,252762.203125,279806.5625,286721.75,265062.46875,242432.125,226142.171875,233915.578125,273336.625,0.0
1763252365.4253197,252770.34375,279805.21875,286732.03125,265071.75,242441.25,226151.65625,233921.125,273349.875,0.0
1763252365.4253678,252776.0625,279834.375,286727.75,265064.34375,242442.140625,226161.046875,233939.53125,273345.65625,0.0
1763252365.4272826,252774.734375,279838.84375,286721.9375,265056.21875,242440.171875,226159.703125,233942.40625,273333.0625,0.0
1763252365.4339237,252767.75,279812.84375,286717.71875,265052.8125,242433.203125,226150.484375,233926.84375,273329.46875,0.0
1763252365.436239,252763.015625,279790.84375,286712.46875,265047.09375,242427.5625,226140.484375,233910.921875,273328.84375,0.0
1763252365.440616,252767.9375,279816.0625,286704.78125,265035.28125,242426.40625,226148.25,233928.8125,273322.59375,0.0
1763252365.4406884,252771.234375,279829.0,286696.28125,265023.84375,242420.59375,226153.265625,233934.625,273310.78125,0.0
1763252365.4688015,252768.109375,279808.4375,286692.96875,265020.8125,242412.734375,226148.171875,233920.140625,273307.84375,0.0
1763252365.474321,252769.625,279792.09375,286698.15625,265027.34375,242413.703125,226147.71875,233912.0,273318.40625,0.0
1763252365.4744155,252781.078125,279819.96875,286700.75,265027.78125,242424.796875,226160.5,233939.53125,273329.5625,0.0
1763252365.4827836,252789.03125,279845.09375,286701.0,265024.75,242433.5625,226173.828125,233961.703125,273330.8125,0.0
1763252365.4828396,252778.484375,279820.6875,286692.6875,265018.21875,242420.5,226153.265625,233932.03125,273321.15625,0.0
1763252365.489984,252776.6875,279797.4375,286698.0625,265024.46875,242417.640625,226143.78125,233912.453125,273323.3125,0.0
1763252365.492596,252785.640625,279812.46875,286701.625,265027.25,242425.515625,226149.0625,233928.8125,273327.34375,0.0
1763252365.4926116,252790.1875,279839.21875,286698.96875,265022.6875,242431.0625,226153.53125,233946.515625,273326.8125,0.0
1763252365.4950194,252787.15625,279828.65625,286701.28125,265025.1875,242430.96875,226144.953125,233929.25,273322.59375,0.0
1763252365.497492,252785.90625,279804.59375,286708.53125,265034.75,242432.21875,226139.140625,233912.71875,273328.59375,0.0
1763252365.500034,252797.890625,279820.96875,286719.6875,265045.5625,242446.171875,226160.6875,233933.640625,273339.84375,0.0
1763252365.5027108,252795.921875,279844.75,286708.34375,265030.8125,242440.71875,226155.671875,233940.875,273323.125,0.0
1763252365.504691,252789.921875,279835.8125,286705.75,265028.65625,242444.109375,226154.421875,233937.484375,273325.09375,0.0
1763252365.5070696,252785.28125,279811.5,286708.875,265032.59375,242449.46875,226153.890625,233928.625,273333.78125,0.0
1763252365.509652,252781.34375,279803.4375,286703.5,265026.875,242446.078125,226153.4375,233925.046875,273329.5625,0.0
1763252365.512988,252784.03125,279830.25,286693.78125,265015.0,242445.625,226161.9375,233941.765625,273323.59375,0.0
1763252365.5130808,252788.9375,279840.71875,286696.53125,265016.40625,242452.421875,226175.53125,233948.203125,273325.1875,0.0
1763252365.51503,252778.75,279813.1875,286691.34375,265009.34375,242441.421875,226157.546875,233926.3125,273319.8125,0.0
1763252365.5212204,252775.078125,279794.9375,286686.96875,265003.90625,242433.46875,226137.265625,233910.21875,273316.96875,0.0
1763252365.525562,252786.4375,279831.0625,286688.6875,265002.65625,242443.390625,226159.4375,233937.921875,273321.0,0.0
1763252365.525634,252780.265625,279832.9375,286681.0625,264992.28125,242439.546875,226161.9375,233943.203125,273316.59375,0.0
1763252365.5362585,252777.5,279811.5625,286685.1875,264996.40625,242438.65625,226152.1875,233926.9375,273319.46875,0.0
1763252365.5393078,252776.875,279795.65625,286691.4375,265000.78125,242439.375,226148.171875,233916.921875,273326.0,0.0
1763252365.5393782,252781.796875,279823.125,286689.46875,264995.40625,242444.90625,226167.828125,233950.09375,273331.28125,0.0
1763252365.5451179,252786.171875,279841.15625,286687.59375,264993.0,242446.515625,226171.953125,233957.328125,273327.78125,0.0
1763252365.5515664,252778.03125,279814.71875,286682.0625,264984.40625,242432.671875,226148.4375,233923.09375,273313.03125,0.0
1763252365.5516655,252773.296875,279791.5625,286680.625,264981.09375,242426.5,226137.078125,233906.28125,273312.3125,0.0
1763252365.5581603,252782.421875,279815.6875,286680.625,264978.5,242434.546875,226151.65625,233927.203125,273316.15625,0.0
1763252365.558232,252793.59375,279844.03125,286682.6875,264977.625,242443.65625,226171.859375,233949.015625,273319.03125,0.0
1763252365.5697317,252787.875,279825.875,286680.625,264974.84375,242439.375,226171.140625,233937.390625,273313.84375,0.0
1763252365.5758033,252785.09375,279799.15625,286681.625,264977.09375,242435.53125,226157.015625,233921.296875,273313.84375,0.0
1763252365.575874,252793.6875,279814.0,286683.5,264979.75,242442.046875,226159.703125,233928.09375,273318.84375,0.0
1763252365.577674,252795.828125,279837.15625,286676.6875,264973.6875,242444.5625,226163.71875,233945.265625,273316.6875,0.0
1763252365.5842109,252784.921875,279817.75,286667.9375,264964.65625,242436.0625,226153.359375,233931.84375,273305.625,0.0
1763252365.5843115,252782.0625,279793.25,286672.9375,264970.1875,242438.46875,226150.84375,233922.375,273311.875,0.0
1763252365.5858228,252783.765625,279792.8125,286673.125,264970.28125,242441.875,226150.140625,233920.578125,273312.3125,0.0
1763252365.6002624,252792.25,279823.28125,286672.125,264968.78125,242449.734375,226160.859375,233941.234375,273314.28125,0.0
1763252365.6003287,252796.546875,279826.25,286679.09375,264976.28125,242457.703125,226167.828125,233945.4375,273318.3125,0.0
1763252365.6029985,252793.765625,279802.5625,286684.65625,264980.5625,242452.328125,226157.546875,233926.65625,273316.59375,0.0
1763252365.6030705,252798.328125,279799.15625,286689.375,264982.28125,242451.0,226149.328125,233924.0625,273321.0,0.0
1763252365.6088135,252805.484375,279830.96875,286686.09375,264973.0625,242452.421875,226160.953125,233941.859375,273312.3125,0.0
1763252365.6177344,252806.640625,279832.5,286683.3125,264968.6875,242453.046875,226162.921875,233942.671875,273314.09375,0.0
1763252365.6177824,252801.015625,279807.03125,286682.40625,264967.25,242447.59375,226158.71875,233923.890625,273314.46875,0.0
1763252365.624088,252800.828125,279796.46875,286685.625,264969.03125,242447.0625,226160.234375,233924.0625,273320.375,0.0
1763252365.62416,252809.234375,279829.5625,286682.9375,264961.4375,242447.953125,226166.578125,233945.078125,273312.75,0.0
1763252365.6406276,252816.390625,279844.03125,286683.65625,264961.78125,242453.5,226174.90625,233954.203125,273311.6875,0.0
1763252365.6407,252810.671875,279821.15625,286682.0625,264961.875,242453.3125,226176.234375,233946.59375,273315.1875,0.0
1763252365.643062,252808.171875,279800.75,286682.6875,264963.75,242449.734375,226155.859375,233922.015625,273316.96875,0.0
1763252365.6431644,252812.1875,279824.09375,286675.96875,264953.5625,242449.734375,226158.1875,233930.953125,273303.65625,0.0
1763252365.6449912,252815.765625,279842.4375,286673.75,264948.75,242455.828125,226178.03125,233952.953125,273306.5,0.0
1763252365.6472216,252809.328125,279824.625,286673.28125,264946.9375,242450.1875,226172.75,233944.09375,273310.625,0.0
1763252365.6644032,252817.375,279812.65625,286685.1875,264958.5625,242454.65625,226173.640625,233942.125,273324.125,0.0
1763252365.6644883,252824.171875,279834.28125,286682.9375,264952.84375,242457.34375,226188.84375,233957.59375,273321.53125,0.0
1763252365.666752,252813.359375,279842.96875,286662.3125,264928.4375,242441.15625,226173.203125,233947.578125,273299.34375,0.0
1763252365.6668,252819.15625,279837.9375,286670.0,264935.78125,242449.203125,226182.5,233947.859375,273304.8125,0.0
1763252365.6686883,252823.71875,279820.4375,286678.125,264945.53125,242454.03125,226180.703125,233937.484375,273312.5,0.0
1763252365.6714356,252828.640625,279826.96875,286674.1875,264942.03125,242455.90625,226168.90625,233944.984375,273314.90625,0.0
1763252365.6940048,252848.84375,279865.65625,286683.84375,264951.15625,242473.34375,226196.890625,233978.875,273325.1875,0.0
1763252365.6940615,252834.0,279841.34375,286671.59375,264939.8125,242457.515625,226179.1875,233955.984375,273308.375,0.0
1763252365.6959977,252818.8125,279801.65625,286663.46875,264931.5625,242438.390625,226145.03125,233912.0,273291.84375,0.0
1763252365.6988096,252825.875,279803.34375,286668.125,264935.875,242443.84375,226146.921875,233918.96875,273295.59375,0.0
1763252365.7037373,252834.71875,279835.90625,286669.0,264932.125,242452.6875,226166.40625,233945.078125,273294.25,0.0
1763252365.7059045,252831.859375,279832.78125,286668.375,264930.15625,242451.4375,226168.015625,233944.1875,273292.5625,0.0
1763252365.7149763,252826.046875,279806.40625,286669.53125,264931.5,242445.0,226157.828125,233931.9375,273298.0,0.0
1763252365.717478,252844.828125,279812.90625,286683.5,264946.6875,242457.703125,226165.515625,233942.578125,273317.5,0.0
1763252365.7199647,252855.734375,279851.09375,286683.75,264943.8125,242467.171875,226181.96875,233967.171875,273318.65625,0.0
1763252365.7225437,252852.953125,279854.40625,286678.40625,264935.59375,242467.359375,226189.390625,233969.125,273310.625,0.0
1763252365.7328427,252850.453125,279827.75,286678.03125,264934.4375,242461.8125,226180.265625,233941.234375,273297.75,0.0
1763252365.7328963,252847.421875,279804.4375,286675.4375,264933.8125,242457.34375,226156.578125,233925.40625,273299.875,0.0
1763252365.7347584,252849.46875,279833.9375,286670.96875,264924.5,242459.75,226165.78125,233951.078125,273298.46875,0.0
1763252365.7397542,252854.65625,279851.375,286674.5625,264925.9375,242465.75,226179.1875,233964.484375,273302.46875,0.0
1763252365.7421055,252861.8125,279840.46875,286686.71875,264939.0,242470.3125,226178.5625,233956.703125,273313.46875,0.0
1763252365.7455964,252853.046875,279816.21875,286682.6875,264936.125,242461.546875,226161.671875,233934.0,273312.3125,0.0
1763252365.7456896,252862.25,279847.6875,286685.71875,264938.09375,242472.546875,226178.65625,233957.78125,273319.125,0.0
1763252365.7499776,252867.71875,279873.8125,286686.78125,264936.5,242481.21875,226198.59375,233983.25,273319.125,0.0
1763252365.7525797,252859.578125,279854.125,286682.0625,264929.53125,242472.09375,226186.609375,233963.140625,273310.09375,0.0
1763252365.754979,252867.359375,279839.84375,286694.40625,264943.5625,242480.59375,226183.484375,233952.40625,273328.9375,0.0
1763252365.7578363,252866.640625,279853.15625,286688.59375,264935.6875,242480.765625,226183.921875,233958.140625,273319.8125,0.0
1763252365.7579048,252858.234375,279866.90625,286672.59375,264916.8125,242472.890625,226183.21875,233960.734375,273297.5625,0.0
1763252365.7747023,252859.3125,279856.625,286677.0625,264922.625,242479.15625,226191.4375,233959.203125,273305.625,0.0
1763252365.7824624,252855.109375,279828.03125,286678.46875,264926.03125,242481.484375,226188.84375,233949.1875,273317.3125,0.0
1763252365.782534,252856.09375,279832.15625,286673.75,264921.75,242482.546875,226187.953125,233958.484375,273317.875,0.0
1763252365.7825627,252858.6875,279857.1875,286666.84375,264912.34375,242483.265625,226202.34375,233979.328125,273309.375,0.0
1763252365.787612,252860.015625,279848.875,286667.9375,264912.96875,242482.109375,226194.75,233966.8125,273309.375,0.0
1763252365.7896228,252854.125,279821.15625,286668.8125,264912.96875,242475.40625,226176.421875,233947.046875,273309.625,0.0
1763252365.7924323,252862.078125,279825.625,286673.03125,264914.6875,242478.0,226173.734375,233952.140625,273315.09375,0.0
1763252365.7946475,252873.25,279861.375,286674.46875,264911.53125,242482.828125,226186.34375,233972.265625,273312.5,0.0
1763252365.8249915,252875.21875,279860.5625,286677.59375,264912.53125,242481.84375,226181.34375,233965.90625,273311.59375,0.0
1763252365.8275008,252871.640625,279837.0625,286682.0625,264916.375,242482.203125,226174.09375,233953.578125,273317.15625,0.0
1763252365.8307226,252869.5,279825.4375,286680.90625,264911.375,242478.265625,226164.34375,233941.953125,273314.28125,0.0
1763252365.8307948,252871.375,279849.3125,286672.125,264898.6875,242472.625,226168.8125,233951.515625,273294.875,0.0
1763252365.8324692,252875.40625,279853.5,286671.25,264899.375,242471.28125,226168.46875,233952.046875,273293.09375,0.0
1763252365.8349774,252876.5625,279834.71875,286676.59375,264906.375,242471.203125,226169.890625,233946.59375,273302.75,0.0
1763252365.8374517,252872.09375,279820.0625,286676.5,264906.53125,242472.71875,226172.03125,233946.59375,273313.5625,0.0
1763252365.840072,252865.5625,279842.59375,286664.0,264891.59375,242472.0,226183.03125,233960.90625,273304.53125,0.0
1763252365.842384,252860.640625,279852.625,286656.03125,264882.40625,242473.796875,226193.9375,233964.390625,273297.5625,0.0
1763252365.8474703,252851.796875,279829.0,286652.09375,264878.65625,242469.140625,226176.859375,233947.5,273299.09375,0.0
1763252365.851068,252852.875,279815.5,286659.4375,264885.96875,242474.953125,226172.65625,233939.265625,273310.71875,0.0
1763252365.8511164,252847.59375,279837.59375,286651.03125,264873.375,242475.84375,226193.671875,233963.234375,273306.875,0.0
1763252365.8511264,252832.3125,279839.28125,286631.90625,264851.375,242460.109375,226180.796875,233955.09375,273286.5625,0.0
1763252365.853763,252830.34375,279825.34375,286636.8125,264857.09375,242460.46875,226180.265625,233949.734375,273291.5625,0.0
1763252365.856222,252828.90625,279804.96875,286643.78125,264865.3125,242461.8125,226179.453125,233943.03125,273300.4375,0.0
1763252365.8593292,252837.578125,279822.21875,286644.875,264868.09375,242468.25,226184.828125,233954.203125,273303.65625,0.0
1763252365.8594007,252838.125,279842.96875,286633.875,264855.5625,242469.140625,226189.109375,233962.96875,273294.34375,0.0
1763252365.861288,252833.828125,279829.71875,286631.09375,264852.09375,242472.359375,226182.859375,233952.046875,273294.15625,0.0
1763252365.875013,252828.90625,279803.71875,286633.78125,264856.5625,242476.734375,226174.546875,233940.515625,273305.34375,0.0
1763252365.8780768,252839.28125,279819.28125,286641.75,264862.90625,242489.078125,226179.8125,233950.0,273312.125,0.0
1763252365.878147,252843.390625,279848.25,286637.09375,264853.0625,242489.171875,226189.734375,233960.28125,273296.03125,0.0
1763252365.8875024,252833.828125,279834.90625,286631.0,264844.40625,242481.75,226180.53125,233953.125,273291.75,0.0
1763252365.889998,252834.359375,279813.09375,286638.6875,264852.71875,242482.90625,226170.703125,233941.234375,273307.5,0.0
1763252365.8930843,252828.8125,279801.28125,286629.65625,264842.15625,242472.09375,226158.1875,233927.375,273290.9375,0.0
1763252365.8931828,252829.4375,279826.78125,286622.78125,264831.96875,242472.359375,226166.859375,233946.328125,273280.9375,0.0
1763252365.8948631,252825.78125,279823.03125,286621.4375,264830.53125,242471.921875,226169.09375,233948.390625,273280.9375,0.0
1763252365.9009008,252823.0,279801.46875,286624.84375,264833.40625,242470.03125,226167.828125,233938.203125,273284.34375,0.0
1763252365.904028,252830.515625,279799.78125,286633.78125,264842.96875,242473.796875,226166.21875,233938.015625,273296.125,0.0
1763252365.9040833,252836.515625,279830.96875,286628.78125,264835.28125,242469.765625,226174.453125,233951.96875,273283.53125,0.0
1763252365.9124792,252826.765625,279825.4375,286613.5625,264817.5,242456.453125,226164.96875,233939.984375,273266.71875,0.0
1763252365.9168403,252822.65625,279801.375,286615.8125,264819.8125,242455.90625,226155.59375,233922.734375,273269.21875,0.0
1763252365.9169118,252830.515625,279793.59375,286628.59375,264834.5625,242469.40625,226158.984375,233927.015625,273290.59375,0.0
1763252365.924994,252835.078125,279826.5,286627.4375,264831.15625,242478.53125,226175.53125,233950.171875,273289.53125,0.0
1763252365.9299364,252830.25,279837.875,286622.59375,264822.5,242480.59375,226183.84375,233956.796875,273279.3125,0.0
1763252365.9330645,252828.46875,279822.3125,286629.40625,264829.5625,242487.921875,226185.890625,233949.734375,273289.0625,0.0
1763252365.933135,252831.765625,279806.40625,286637.71875,264841.1875,242496.328125,226186.4375,233943.5625,273305.53125,0.0
1763252365.941306,252834.71875,279824.8125,286630.65625,264834.21875,242495.515625,226177.84375,233954.46875,273298.71875,0.0
1763252365.9443254,252830.34375,279842.6875,286621.625,264822.5,242494.890625,226187.328125,233970.734375,273293.4375,0.0
1763252365.9443965,252835.078125,279833.84375,286631.46875,264831.09375,242503.75,226194.5625,233971.09375,273304.90625,0.0
1763252365.9605393,252830.15625,279805.3125,286632.34375,264832.15625,242501.515625,226177.3125,233950.53125,273310.34375,0.0
1763252365.9606717,252824.890625,279810.25,286620.375,264817.59375,242495.25,226168.90625,233946.25,273297.65625,0.0
1763252365.9625041,252830.703125,279833.125,286615.0,264811.21875,242498.015625,226179.28125,233958.40625,273286.3125,0.0
1763252365.964832,252833.828125,279826.25,286620.28125,264817.03125,242506.0625,226188.125,233962.6875,273295.78125,0.0
1763252365.9673617,252834.265625,279803.1875,286627.25,264823.5625,242509.203125,226180.078125,233952.328125,273306.78125,0.0
1763252365.9793253,252829.359375,279803.0,286620.28125,264814.4375,242506.328125,226180.890625,233954.921875,273302.65625,0.0
1763252365.979396,252826.3125,279823.375,286605.96875,264797.46875,242496.859375,226184.015625,233963.59375,273282.8125,0.0
1763252365.9841745,252826.5,279819.53125,286607.59375,264796.84375,242497.3125,226183.125,233961.890625,273283.875,0.0
1763252365.9842453,252823.984375,279797.09375,286613.65625,264802.125,242497.75,226174.71875,233944.453125,273288.28125,0.0
1763252365.9947193,252827.65625,279799.0625,286618.125,264804.78125,242503.921875,226182.953125,233953.390625,273293.0,0.0
1763252366.0000505,252832.578125,279830.53125,286613.40625,264796.75,242504.1875,226192.59375,233971.546875,273286.21875,0.0
1763252366.006276,252832.578125,279827.21875,286611.5,264795.6875,242501.15625,226183.484375,233964.125,273283.09375,0.0
1763252366.0085025,252843.75,279815.875,286628.3125,264814.0,242512.5,226187.140625,233956.96875,273300.34375,0.0
1763252366.0112903,252851.890625,279815.6875,286637.09375,264822.0625,242520.734375,226195.90625,233964.75,273308.375,0.0
1763252366.0137825,252846.875,279838.3125,286621.71875,264802.8125,242514.921875,226198.234375,233975.65625,273294.625,0.0
1763252366.0162504,252846.96875,279843.9375,286617.6875,264798.34375,242513.046875,226196.796875,233975.296875,273291.125,0.0
1763252366.0235145,252842.234375,279818.90625,286616.625,264796.75,242504.90625,226185.453125,233952.953125,273282.90625,0.0
1763252366.0266976,252842.765625,279803.0,286618.125,264797.375,242502.84375,226179.1875,233943.734375,273287.28125,0.0
1763252366.0267456,252851.796875,279836.625,286620.09375,264796.65625,242515.1875,226202.171875,233975.296875,273295.40625,0.0
1763252366.0286305,252848.9375,279847.78125,286614.90625,264790.21875,242517.875,226208.515625,233982.1875,273290.3125,0.0
1763252366.0311544,252843.484375,279822.40625,286612.5,264788.4375,242512.5,226190.90625,233960.375,273284.875,0.0
1763252366.035109,252843.921875,279801.46875,286617.25,264796.03125,242514.46875,226184.375,233951.875,273296.65625,0.0
1763252366.044052,252851.703125,279828.9375,286619.90625,264795.9375,242521.890625,226199.390625,233974.40625,273304.625,0.0
1763252366.0440917,252845.8125,279841.71875,286608.75,264782.71875,242518.671875,226201.359375,233982.90625,273295.34375,0.0
1763252366.046528,252842.671875,279822.65625,286609.625,264784.5,242515.546875,226195.015625,233967.515625,273294.25,0.0
1763252366.0465443,252841.421875,279803.4375,286616.875,264791.375,242517.875,226197.25,233957.15625,273302.65625,0.0
1763252366.0612535,252837.578125,279812.46875,286609.8125,264782.1875,242515.359375,226186.703125,233962.6875,273295.875,0.0
1763252366.06433,252843.484375,279836.15625,286606.96875,264778.34375,242521.171875,226195.734375,233982.359375,273292.125,0.0
1763252366.064402,252845.890625,279827.84375,286610.875,264783.0625,242526.90625,226198.859375,233982.984375,273300.15625,0.0
1763252366.066232,252836.15625,279797.0,286606.34375,264778.40625,242519.203125,226184.640625,233961.984375,273299.1875,0.0
1763252366.0700014,252847.953125,279810.5,286611.4375,264782.0,242526.09375,226194.390625,233972.171875,273305.0,0.0
1763252366.0837553,252848.125,279836.0625,286602.40625,264770.5625,242525.015625,226210.65625,233992.46875,273298.1875,0.0
1763252366.0865996,252841.875,279820.78125,286594.15625,264763.40625,242511.875,226198.859375,233974.671875,273289.4375,0.0
1763252366.0866556,252850.453125,279804.6875,286605.53125,264776.90625,242516.265625,226196.453125,233966.09375,273305.34375,0.0
1763252366.0959153,252855.28125,279803.96875,286607.03125,264776.625,242515.640625,226189.203125,233954.734375,273301.84375,0.0
1763252366.0987644,252854.921875,279832.0625,286595.78125,264762.40625,242514.734375,226197.515625,233971.8125,273291.3125,0.0
1763252366.1012995,252850.359375,279830.96875,286591.5,264756.875,242518.046875,226200.46875,233978.703125,273296.84375,0.0
1763252366.104041,252847.6875,279808.53125,286595.6875,264759.5625,242518.5,226196.625,233964.390625,273292.125,0.0
1763252366.1040907,252844.546875,279799.5,286596.75,264759.8125,242520.734375,226194.5625,233956.078125,273295.25,0.0
1763252366.1062481,252856.453125,279836.34375,286598.90625,264758.5625,242530.125,226211.828125,233979.765625,273298.46875,0.0
1763252366.1126995,252858.859375,279841.875,286595.0625,264751.59375,242528.515625,226205.390625,233979.59375,273290.59375,0.0
1763252366.1267033,252855.28125,279818.1875,286598.375,264755.1875,242525.640625,226194.390625,233962.78125,273290.9375,0.0
1763252366.1267593,252855.546875,279803.53125,286605.0,264763.03125,242530.46875,226192.953125,233956.796875,273299.09375,0.0
1763252366.1293948,252853.765625,279828.375,286596.125,264752.03125,242533.78125,226204.21875,233972.4375,273289.6875,0.0
1763252366.129468,252859.3125,279847.78125,286595.875,264749.1875,242543.078125,226218.078125,233988.0,273289.53125,0.0
1763252366.1337955,252852.0625,279826.59375,286594.625,264749.625,242542.28125,226212.265625,233982.1875,273294.53125,0.0
1763252366.1357708,252843.296875,279799.96875,286591.03125,264747.125,242533.0625,226196.359375,233963.046875,273286.9375,0.0
1763252366.1387744,252846.875,279820.6875,286586.03125,264739.78125,242532.0,226199.125,233969.671875,273278.53125,0.0
1763252366.142589,252843.125,279837.59375,286577.625,264729.25,242529.140625,226201.359375,233975.84375,273270.125,0.0
1763252366.151425,252837.140625,279817.9375,286575.5625,264729.6875,242523.234375,226190.1875,233961.171875,273270.46875,0.0
1763252366.1541073,252833.375,279791.625,286577.0,264732.8125,242519.921875,226178.75,233945.171875,273276.5625,0.0
1763252366.1541789,252842.3125,279808.53125,286577.8125,264733.09375,242522.78125,226186.515625,233957.421875,273277.28125,0.0
1763252366.1649523,252859.03125,279846.96875,286586.125,264739.34375,242537.359375,226215.84375,233992.734375,273286.84375,0.0
1763252366.1679351,252841.515625,279820.0625,286571.8125,264723.78125,242519.390625,226194.390625,233964.484375,273268.15625,0.0
1763252366.1680071,252839.734375,279796.125,286578.6875,264731.21875,242520.109375,226188.578125,233948.125,273273.875,0.0
1763252366.1763716,252843.578125,279805.15625,286583.0,264733.09375,242527.171875,226193.765625,233957.78125,273282.375,0.0
1763252366.179362,252846.4375,279834.28125,286577.0,264725.65625,242531.015625,226207.078125,233976.828125,273276.8125,0.0
1763252366.1794353,252843.21875,279821.78125,286570.21875,264718.96875,242524.84375,226200.375,233969.84375,273269.40625,0.0
1763252366.180784,252838.5625,279795.65625,286573.96875,264722.4375,242524.84375,226199.578125,233961.625,273277.1875,0.0
1763252366.1848834,252842.40625,279796.125,286581.84375,264727.46875,242533.96875,226204.578125,233966.265625,273289.6875,0.0
1763252366.1959743,252842.671875,279825.875,286572.71875,264714.03125,242532.890625,226208.609375,233979.234375,273274.0625,0.0
1763252366.201569,252829.171875,279812.65625,286557.4375,264697.6875,242518.671875,226199.484375,233968.5,273253.75,0.0
1763252366.20164,252831.046875,279788.96875,286563.3125,264704.40625,242516.171875,226182.046875,233941.59375,273254.125,0.0
1763252366.2037847,252837.84375,279783.78125,286573.78125,264716.09375,242527.53125,226183.65625,233945.34375,273272.1875,0.0
1763252366.2062676,252827.65625,279804.78125,286557.78125,264696.53125,242521.265625,226191.4375,233960.546875,273261.1875,0.0
1763252366.2122352,252808.609375,279797.90625,286537.40625,264674.71875,242506.0625,226178.46875,233948.203125,273240.0625,0.0
1763252366.221581,252800.75,279773.9375,286538.5625,264677.9375,242505.984375,226177.140625,233942.40625,273247.9375,0.0
1763252366.2216508,252798.6875,279756.9375,286543.46875,264684.09375,242508.921875,226178.203125,233941.0625,273258.75,0.0
1763252366.2288651,252801.375,279783.59375,286539.46875,264678.46875,242512.6875,226188.578125,233963.140625,273259.75,0.0
1763252366.2309575,252795.375,279792.4375,286528.09375,264664.96875,242505.53125,226188.40625,233964.75,273248.375,0.0
1763252366.233778,252794.3125,279775.28125,286530.96875,264668.1875,242505.171875,226187.859375,233956.078125,273251.78125,0.0
1763252366.23793,252804.859375,279766.875,286548.40625,264687.75,242521.71875,226201.09375,233968.6875,273281.46875,0.0
1763252366.23798,252802.53125,279777.96875,286538.375,264674.53125,242510.890625,226183.921875,233961.796875,273266.90625,0.0
1763252366.251314,252795.734375,279788.78125,286521.5625,264653.78125,242492.203125,226172.84375,233950.171875,273240.53125,0.0
1763252366.256194,252792.34375,279770.71875,286518.875,264653.15625,242484.078125,226168.1875,233937.390625,273237.03125,0.0
1763252366.256265,252780.1875,279740.21875,286515.59375,264648.59375,242477.1875,226155.9375,233919.6875,273235.6875,0.0
1763252366.256298,252783.125,279754.1875,286513.53125,264642.96875,242479.6875,226161.046875,233931.484375,273235.15625,0.0
1763252366.25905,252786.4375,279780.28125,286509.3125,264637.59375,242481.21875,226170.96875,233945.796875,273229.625,0.0
1763252366.25912,252778.75,279765.90625,286504.75,264632.40625,242476.203125,226171.046875,233938.90625,273226.84375,0.0
1763252366.267563,252773.921875,279743.09375,286511.03125,264637.5,242477.375,226170.25,233927.5625,273233.8125,0.0
1763252366.271308,252778.65625,279752.75,286518.625,264645.90625,242485.765625,226173.5625,233937.65625,273246.78125,0.0
1763252366.2746015,252767.671875,279772.0625,286499.03125,264625.09375,242475.578125,226172.21875,233947.578125,273231.40625,0.0
1763252366.29807,252760.59375,279761.78125,286490.90625,264615.34375,242469.140625,226176.0625,233945.34375,273219.0625,0.0
1763252366.2981188,252759.796875,279734.40625,286494.65625,264617.5,242462.078125,226148.53125,233915.3125,273215.75,0.0
1763252366.3144133,252766.6875,279737.375,286503.15625,264625.1875,242471.203125,226148.875,233916.65625,273223.8125,0.0
1763252366.314485,252769.90625,279770.375,286497.25,264615.15625,242473.875,226170.96875,233940.96875,273215.65625,0.0
1763252366.3145056,252768.296875,279770.28125,286494.21875,264610.15625,242472.09375,226171.859375,233943.203125,273213.25,0.0
1763252366.31452,252766.140625,279747.375,286497.875,264614.53125,242472.09375,226163.28125,233930.15625,273218.96875,0.0
1763252366.3145335,252760.328125,279731.8125,286494.9375,264612.65625,242470.65625,226150.671875,233920.5,273227.28125,0.0
1763252366.320954,252763.375,279763.46875,286490.375,264605.78125,242478.4375,226166.21875,233949.734375,273231.3125,0.0
1763252366.3210332,252760.15625,279769.03125,286482.5,264597.46875,242476.109375,226170.875,233952.5,273220.84375,0.0
1763252366.321054,252756.75,279748.46875,286484.375,264599.78125,242475.578125,226171.953125,233943.734375,273221.65625,0.0
1763252366.3237717,252760.328125,279733.71875,286490.46875,264606.125,242477.375,226171.046875,233933.546875,273224.875,0.0
1763252366.3262503,252761.234375,279753.1875,286481.4375,264594.40625,242472.1875,226161.046875,233934.53125,273210.65625,0.0
1763252366.3313394,252762.125,279768.84375,286477.6875,264589.15625,242474.234375,226172.65625,233943.296875,273205.9375,0.0
1763252366.3337903,252747.453125,279739.15625,286468.5625,264580.21875,242462.4375,226156.65625,233920.046875,273198.5,0.0
1763252366.336432,252743.96875,279717.25,286471.15625,264582.15625,242460.828125,226142.359375,233908.25,273207.25,0.0
1763252366.3387773,252757.109375,279745.59375,286477.0625,264584.3125,242470.65625,226154.609375,233928.546875,273208.34375,0.0
1763252366.3425078,252766.140625,279773.03125,286479.8125,264585.46875,242478.984375,226169.890625,233947.9375,273209.0625,0.0
1763252366.3492255,252758.984375,279753.71875,286475.0,264580.21875,242471.203125,226157.28125,233930.5,273202.71875,0.0
1763252366.3492756,252756.75,279729.0625,286478.125,264582.875,242469.40625,226143.703125,233912.171875,273202.0625,0.0
1763252366.3574011,252763.46875,279743.375,286479.71875,264582.71875,242475.140625,226147.265625,233914.59375,273198.40625,0.0
1763252366.366866,252770.171875,279771.96875,286476.15625,264577.53125,242480.140625,226161.3125,233933.546875,273193.125,0.0
1763252366.366938,252772.578125,279764.625,286480.28125,264579.3125,242480.59375,226160.6875,233927.921875,273195.375,0.0
1763252366.368946,252765.15625,279735.5,286482.59375,264581.53125,242476.46875,226151.65625,233914.140625,273203.6875,0.0
1763252366.368991,252763.8125,279735.03125,286479.625,264577.0,242473.796875,226154.328125,233919.59375,273207.4375,0.0
1763252366.3713207,252760.515625,279757.75,286465.4375,264560.09375,242467.09375,226160.140625,233933.09375,273188.9375,0.0
1763252366.380018,252763.1875,279757.9375,286470.875,264566.09375,242478.078125,226172.75,233946.6875,273201.4375,0.0
1763252366.3892276,252757.296875,279732.53125,286474.625,264569.75,242479.421875,226164.609375,233932.921875,273206.5625,0.0
1763252366.3892753,252758.09375,279727.09375,286476.59375,264572.875,242482.828125,226162.03125,233930.78125,273212.4375,0.0
1763252366.3947964,252769.0,279762.59375,286476.875,264571.875,242489.890625,226177.671875,233958.140625,273212.625,0.0
1763252366.3996623,252768.640625,279760.34375,286473.65625,264567.96875,242482.375,226164.265625,233939.359375,273202.4375,0.0
1763252366.4075134,252760.78125,279730.3125,286470.34375,264565.4375,242469.859375,226139.9375,233902.609375,273193.5,0.0
1763252366.4238207,252757.203125,279715.28125,286468.375,264562.15625,242465.125,226130.28125,233901.0,273196.0,0.0
1763252366.4262598,252769.453125,279751.21875,286468.8125,264556.78125,242473.25,226150.671875,233930.59375,273192.34375,0.0
1763252366.4288173,252767.21875,279756.9375,286462.125,264549.09375,242470.3125,226151.203125,233930.59375,273185.625,0.0
1763252366.4311447,252763.546875,279736.65625,286463.8125,264550.6875,242468.25,226143.515625,233910.484375,273185.625,0.0
1763252366.4338367,252768.734375,279723.96875,286471.875,264558.65625,242476.46875,226149.0625,233914.6875,273200.8125,0.0
1763252366.436247,252773.5625,279743.71875,286462.75,264548.375,242474.234375,226152.1875,233924.78125,273194.03125,0.0
1763252366.4393501,252773.46875,279756.5,286455.0625,264541.03125,242473.96875,226157.90625,233935.15625,273190.0,0.0
1763252366.4394376,252761.5,279730.125,286449.0625,264534.53125,242464.5,226143.0625,233914.6875,273180.0,0.0
1763252366.4413645,252764.984375,279711.71875,286459.6875,264544.875,242470.84375,226144.046875,233910.484375,273195.1875,0.0
1763252366.4659953,252765.875,279723.875,286453.25,264535.0625,242466.28125,226141.1875,233916.03125,273190.46875,0.0
1763252366.4689128,252763.1875,279741.40625,286444.40625,264523.625,242464.21875,226142.890625,233918.609375,273178.90625,0.0
1763252366.471584,252762.75,279732.53125,286449.0625,264528.15625,242468.515625,226145.65625,233913.25,273181.4375,0.0
1763252366.4716737,252756.9375,279707.25,286450.3125,264528.15625,242463.875,226133.765625,233897.609375,273178.375,0.0
1763252366.4737103,252751.578125,279713.15625,286443.25,264518.6875,242461.359375,226137.609375,233900.640625,273175.4375,0.0
1763252366.4764905,252760.15625,279749.25,286444.78125,264517.96875,242470.21875,226153.703125,233928.265625,273180.25,0.0
1763252366.4785185,252754.703125,279738.1875,286445.125,264518.0625,242468.875,226144.5,233925.140625,273178.46875,0.0
1763252366.4811497,252753.984375,279713.59375,286452.8125,264525.75,242474.328125,226140.5625,233912.890625,273184.65625,0.0
1763252366.4876564,252767.3125,279726.09375,286464.96875,264537.65625,242490.421875,226154.421875,233927.015625,273198.84375,0.0
1763252366.4899905,252775.625,279761.6875,286465.96875,264537.375,242500.703125,226175.4375,233952.59375,273201.90625,0.0
1763252366.4923692,252768.640625,279751.21875,286460.0625,264530.0625,242495.703125,226173.203125,233948.203125,273194.65625,0.0
1763252366.494707,252763.640625,279722.625,286461.59375,264531.21875,242491.046875,226160.6875,233928.8125,273197.53125,0.0
1763252366.4980388,252759.34375,279711.0,286457.8125,264528.875,242488.453125,226152.8125,233922.375,273198.3125,0.0
1763252366.498113,252765.421875,279744.6875,286453.1875,264523.34375,242497.390625,226172.21875,233950.71875,273200.8125,0.0
1763252366.5012653,252760.0625,279738.53125,286441.71875,264510.65625,242487.65625,226158.71875,233936.046875,273185.71875,0.0
1763252366.5138009,252763.640625,279721.46875,286451.3125,264519.125,242495.078125,226157.28125,233931.484375,273198.5,0.0
1763252366.5193677,252758.546875,279705.375,286449.96875,264517.34375,242493.640625,226147.265625,233921.390625,273204.9375,0.0
1763252366.5194416,252754.609375,279728.4375,286435.46875,264499.75,242484.34375,226149.0625,233925.59375,273181.59375,0.0
1763252366.5212998,252752.375,279734.0625,286426.625,264490.25,242477.1875,226153.078125,233929.875,273172.75,0.0
1763252366.524012,252754.34375,279714.75,286432.15625,264495.0,242476.03125,226152.375,233923.796875,273183.40625,0.0
1763252366.5284235,252766.953125,279708.59375,286447.71875,264511.09375,242487.921875,226165.953125,233925.859375,273202.34375,0.0
1763252366.531072,252769.453125,279732.0,286441.375,264501.53125,242487.03125,226169.796875,233937.484375,273194.75,0.0
1763252366.53673,252759.4375,279740.40625,286425.625,264484.0,242476.921875,226159.609375,233938.46875,273181.15625,0.0
1763252366.5367787,252761.046875,279729.3125,286432.34375,264493.375,242483.0,226161.671875,233937.296875,273194.03125,0.0
1763252366.541035,252755.140625,279704.28125,286431.375,264494.90625,242478.703125,226151.75,233920.9375,273194.03125,0.0
1763252366.5494065,252760.15625,279727.8125,286431.1875,264491.25,242484.078125,226160.59375,233938.828125,273193.40625,0.0
1763252366.5494788,252766.140625,279756.0625,286431.0,264485.875,242488.8125,226170.25,233948.203125,273186.25,0.0
1763252366.5513024,252760.953125,279737.5625,286430.375,264486.25,242489.53125,226162.921875,233937.21875,273187.59375,0.0
1763252366.5537949,252756.75,279714.84375,286436.1875,264492.9375,242493.109375,226157.546875,233924.25,273196.96875,0.0
1763252366.556239,252756.3125,279723.96875,286433.875,264487.40625,242493.546875,226158.265625,233932.75,273193.0625,0.0
1763252366.5587983,252759.625,279749.4375,286428.0625,264477.46875,242493.546875,226161.3125,233946.25,273178.46875,0.0
1763252366.562614,252752.90625,279734.15625,286422.0625,264470.21875,242487.203125,226152.453125,233932.296875,273172.125,0.0
1763252366.571529,252748.4375,279708.9375,286423.84375,264471.3125,242482.546875,226142.265625,233912.71875,273173.28125,0.0
1763252366.5715928,252755.140625,279714.21875,286428.0625,264474.625,242485.234375,226145.484375,233916.375,273178.03125,0.0
1763252366.5831416,252767.21875,279750.6875,286428.59375,264473.1875,242493.90625,226166.765625,233944.546875,273178.65625,0.0
1763252366.5832152,252763.28125,279746.21875,286425.09375,264470.3125,242490.875,226169.984375,233941.421875,273175.53125,0.0
1763252366.585702,252754.078125,279713.40625,286421.71875,264466.9375,242479.609375,226147.890625,233921.296875,273171.5,0.0
1763252366.5858018,252754.796875,279704.1875,286420.71875,264465.84375,242476.109375,226140.5625,233906.453125,273171.21875,0.0
1763252366.5910275,252763.640625,279736.21875,286416.0625,264458.625,242476.65625,226147.1875,233919.953125,273163.28125,0.0
1763252366.5938418,252759.171875,279737.71875,286410.625,264453.15625,242474.6875,226145.84375,233925.671875,273163.90625,0.0
1763252366.6093564,252753.359375,279712.0625,286412.3125,264455.9375,242472.546875,226145.390625,233918.265625,273170.875,0.0
1763252366.6094265,252749.78125,279691.25,286409.28125,264452.34375,242468.25,226137.890625,233909.59375,273169.25,0.0
1763252366.6199343,252757.375,279720.375,286404.8125,264443.84375,242471.46875,226149.234375,233931.046875,273164.78125,0.0
1763252366.6200073,252764.09375,279736.21875,286405.34375,264441.28125,242474.234375,226154.515625,233934.984375,273161.03125,0.0
1763252366.6200275,252767.3125,279721.46875,286413.125,264449.21875,242476.828125,226153.171875,233927.015625,273167.21875,0.0
1763252366.6227171,252763.8125,279701.96875,286416.4375,264453.875,242476.921875,226145.03125,233912.359375,273173.75,0.0
1763252366.6273787,252768.921875,279726.8125,286416.15625,264450.125,242485.953125,226159.34375,233935.0625,273175.53125,0.0
1763252366.629989,252772.40625,279745.59375,286413.75,264445.375,242492.921875,226169.53125,233950.53125,273168.5625,0.0
1763252366.6325061,252769.1875,279728.59375,286416.4375,264448.25,242494.09375,226162.375,233938.640625,273173.1875,0.0
1763252366.634828,252763.46875,279700.28125,286416.25,264449.5,242490.15625,226153.359375,233920.140625,273175.625,0.0
1763252366.6413164,252767.21875,279715.28125,286411.96875,264446.0,242492.125,226153.4375,233927.46875,273174.8125,0.0
1763252366.6443508,252774.8125,279743.4375,286410.875,264445.375,242500.4375,226169.171875,233952.5,273176.15625,0.0
1763252366.6444225,252761.5,279721.90625,286401.59375,264434.84375,242489.796875,226163.8125,233933.71875,273166.40625,0.0
1763252366.6500092,252755.0625,279697.40625,286402.5625,264437.96875,242487.5625,226158.359375,233920.046875,273176.25,0.0
1763252366.6640584,252760.25,279706.875,286403.09375,264437.875,242490.15625,226157.90625,233932.65625,273177.21875,0.0
1763252366.664105,252758.1875,279727.96875,286391.03125,264420.96875,242481.84375,226157.109375,233933.015625,273157.375,0.0
1763252366.6668465,252748.4375,279715.09375,286384.6875,264415.0625,242480.140625,226154.875,233931.671875,273158.28125,0.0
1763252366.6669168,252736.734375,279682.5625,286380.5,264409.25,242474.15625,226144.671875,233917.546875,273160.3125,0.0
1763252366.6700156,252733.6875,279678.1875,286375.40625,264401.125,242469.671875,226138.15625,233909.765625,273154.25,0.0
1763252366.684182,252735.65625,279704.28125,286364.125,264386.1875,242462.609375,226140.5625,233913.515625,273131.28125,0.0
1763252366.6842542,252741.375,279702.9375,286366.625,264387.96875,242462.703125,226140.921875,233911.109375,273131.34375,0.0
1763252366.6912243,252743.609375,279680.96875,286375.03125,264396.21875,242466.1875,226138.953125,233906.1875,273144.0625,0.0
1763252366.6912956,252738.703125,279667.625,286371.625,264391.90625,242464.40625,226128.40625,233899.9375,273146.28125,0.0
1763252366.6913185,252744.6875,279700.8125,286367.96875,264386.8125,242470.9375,226144.59375,233921.75,273147.71875,0.0
1763252366.6937957,252744.59375,279702.5,286363.5,264382.4375,242469.59375,226144.5,233914.6875,273140.46875,0.0
1763252366.6960309,252738.875,279677.125,286363.0625,264379.9375,242463.953125,226137.4375,233895.28125,273133.5,0.0
1763252366.7150013,252733.515625,279657.71875,286361.8125,264376.71875,242458.234375,226120.359375,233886.515625,273135.5625,0.0
1763252366.7206528,252746.390625,279689.0,286362.59375,264376.0,242467.359375,226135.734375,233917.8125,273140.375,0.0
1763252366.7207243,252754.703125,279705.0,286366.1875,264380.5625,242477.28125,226153.796875,233936.859375,273147.09375,0.0
1763252366.7225423,252753.09375,279687.03125,286369.9375,264385.21875,242477.015625,226148.796875,233913.78125,273143.53125,0.0
1763252366.725377,252746.125,279666.1875,286369.84375,264386.28125,242475.484375,226138.328125,233901.09375,273147.375,0.0
1763252366.725436,252756.9375,279698.46875,286375.84375,264392.8125,242489.96875,226157.28125,233930.6875,273157.03125,0.0
1763252366.7271433,252764.171875,279721.71875,286377.53125,264393.6875,242497.125,226170.515625,233944.71875,273155.3125,0.0
1763252366.731259,252756.9375,279702.0625,286376.03125,264391.65625,242493.46875,226154.421875,233928.359375,273155.59375,0.0
1763252366.7355878,252751.21875,279678.53125,286376.65625,264390.46875,242490.59375,226141.90625,233909.40625,273157.28125,0.0
1763252366.735658,252761.671875,279701.15625,286381.125,264394.5,242498.921875,226150.40625,233923.0,273161.5625,0.0
1763252366.7488234,252763.28125,279726.65625,286375.125,264385.9375,242500.96875,226164.265625,233945.34375,273157.65625,0.0
1763252366.75163,252761.9375,279716.90625,286378.53125,264389.84375,242505.890625,226172.03125,233946.59375,273163.71875,0.0
1763252366.751722,252765.609375,279700.1875,286389.875,264400.6875,242510.8125,226174.09375,233934.0,273170.78125,0.0
1763252366.753791,252766.59375,279706.34375,286386.75,264392.8125,242509.28125,226165.15625,233937.484375,273172.3125,0.0
1763252366.7575562,252759.703125,279723.25,286368.78125,264371.625,242495.15625,226158.890625,233940.796875,273150.40625,0.0
1763252366.7668676,252752.109375,279706.25,286357.6875,264361.0625,242482.46875,226146.734375,233923.625,273134.40625,0.0
1763252366.76694,252751.578125,279685.25,286362.78125,264366.25,242482.546875,226144.953125,233908.609375,273136.1875,0.0
1763252366.7713313,252756.84375,279688.65625,286367.625,264368.125,242489.4375,226156.65625,233918.703125,273149.3125,0.0
1763252366.7735047,252766.953125,279722.09375,286368.15625,264365.4375,242498.921875,226172.21875,233950.171875,273153.71875,0.0
1763252366.7775335,252766.859375,279720.03125,286368.40625,264364.03125,242499.90625,226170.96875,233949.640625,273149.25,0.0
1763252366.7945976,252766.59375,279693.375,286371.1875,264365.8125,242492.390625,226157.015625,233925.328125,273148.0,0.0
1763252366.79467,252771.78125,279684.96875,286374.84375,264371.34375,242492.921875,226151.203125,233921.5625,273156.375,0.0
1763252366.796594,252779.28125,279717.6875,286372.1875,264366.53125,242496.5,226160.6875,233936.9375,273147.71875,0.0
1763252366.7987025,252770.890625,279718.15625,286362.34375,264355.78125,242492.921875,226164.96875,233939.53125,273143.59375,0.0
1763252366.8008835,252769.8125,279699.0,286369.59375,264364.46875,242497.578125,226162.03125,233927.109375,273153.875,0.0
1763252366.810664,252770.25,279685.25,286375.125,264372.34375,242499.09375,226151.296875,233915.390625,273163.53125,0.0
1763252366.8107364,252776.875,279718.9375,286374.0625,264367.875,242502.484375,226158.8125,233931.40625,273153.4375,0.0
1763252366.812566,252778.03125,279730.5625,286369.125,264359.5625,242500.4375,226166.671875,233942.671875,273142.09375,0.0
1763252366.8150043,252777.953125,279709.375,286372.625,264363.3125,242503.46875,226166.21875,233934.265625,273152.09375,0.0
1763252366.8187752,252781.171875,279693.5625,286380.9375,264370.46875,242511.515625,226167.125,233933.28125,273166.40625,0.0
1763252366.8281112,252788.765625,279718.9375,286381.46875,264368.125,242520.28125,226176.953125,233950.4375,273164.34375,0.0
1763252366.8281827,252789.65625,279739.78125,286374.0625,264358.75,242522.078125,226182.40625,233957.234375,273151.375,0.0
1763252366.8300028,252788.5,279724.75,286376.71875,264363.03125,242523.953125,226172.125,233949.375,273161.5625,0.0
1763252366.8336942,252787.78125,279704.03125,286382.90625,264369.28125,242525.015625,226166.5,233935.96875,273168.09375,0.0
1763252366.8479123,252791.171875,279719.21875,286379.6875,264365.375,242526.8125,226167.296875,233943.03125,273171.0625,0.0
1763252366.8479843,252802.625,279750.96875,286382.0,264364.90625,242536.375,226193.3125,233969.671875,273169.90625,0.0
1763252366.8499956,252795.65625,279731.125,286374.59375,264354.4375,242524.3125,226179.1875,233946.59375,273149.59375,0.0
1763252366.8550549,252783.9375,279691.9375,286367.15625,264347.5625,242509.015625,226142.625,233911.546875,273139.40625,0.0
1763252366.8650284,252782.0625,279693.75,286362.4375,264343.09375,242511.703125,226141.546875,233918.796875,273144.9375,0.0
1763252366.8672247,252801.015625,279739.78125,286373.25,264354.4375,242532.171875,226180.078125,233955.1875,273159.15625,0.0
1763252366.8707452,252807.984375,279748.53125,286382.625,264362.84375,242542.8125,226200.203125,233958.3125,273169.25,0.0
1763252366.8708172,252800.65625,279717.53125,286379.25,264356.6875,242530.390625,226156.484375,233928.265625,273158.34375,0.0
1763252366.8724945,252800.921875,279718.6875,286383.15625,264359.28125,242538.171875,226162.5625,233934.53125,273165.40625,0.0
1763252366.8750136,252799.671875,279748.0,286375.03125,264349.53125,242542.015625,226177.671875,233955.984375,273157.65625,0.0
1763252366.8789182,252797.171875,279744.875,286368.40625,264342.375,242535.921875,226173.734375,233948.203125,273150.75,0.0
1763252366.8872156,252797.890625,279725.375,286371.5625,264343.71875,242531.28125,226174.625,233934.359375,273148.96875,0.0
1763252366.895593,252800.296875,279709.125,286373.34375,264347.9375,242535.296875,226165.421875,233939.0,273166.6875,0.0
1763252366.8956656,252823.8125,279751.0625,286382.46875,264357.59375,242550.328125,226183.84375,233962.15625,273164.875,0.0
1763252366.8975248,252832.9375,279761.875,286383.4375,264354.8125,242549.78125,226194.390625,233965.90625,273154.0625,0.0
1763252366.8995667,252826.046875,279731.75,286379.875,264351.0625,242538.703125,226174.984375,233943.296875,273154.0625,0.0
1763252366.9075556,252828.546875,279713.21875,286384.34375,264358.21875,242544.609375,226164.796875,233940.25,273166.59375,0.0
1763252366.9106383,252843.84375,279749.625,286388.28125,264359.28125,242558.8125,226187.140625,233968.5,273172.3125,0.0
1763252366.9107094,252850.1875,279768.21875,286385.6875,264352.65625,242558.734375,226204.84375,233975.65625,273162.8125,0.0
1763252366.914632,252858.59375,279761.875,286398.28125,264366.875,242564.546875,226223.171875,233970.203125,273178.90625,0.0
1763252366.9240787,252864.5,279742.1875,286405.6875,264378.875,242565.25,226201.453125,233960.453125,273194.46875,0.0
1763252366.9241736,252859.125,279748.09375,286388.8125,264355.875,242552.015625,226181.515625,233958.3125,273173.90625,0.0
1763252366.9267576,252880.234375,279788.59375,286401.6875,264366.25,242570.984375,226215.578125,233991.75,273183.65625,0.0
1763252366.9268308,252886.390625,279782.875,286409.71875,264371.875,242573.84375,226215.21875,233982.1875,273181.78125,0.0
1763252366.9324903,252879.6875,279751.59375,286407.21875,264368.5,242562.578125,226199.75,233958.40625,273177.9375,0.0
1763252366.9387765,252889.703125,279775.71875,286415.09375,264373.40625,242568.390625,226211.015625,233971.015625,273183.125,0.0
1763252366.944875,252903.65625,279808.4375,286421.0,264378.59375,242577.953125,226216.203125,233997.65625,273194.3125,0.0
1763252366.9515624,252897.390625,279786.0,286415.1875,264370.46875,242569.8125,226201.546875,233980.671875,273178.21875,0.0
1763252366.9516332,252895.875,279761.6875,286422.59375,264379.9375,242571.0625,226197.15625,233964.390625,273178.75,0.0
1763252366.9538007,252892.203125,279762.40625,286416.53125,264370.1875,242564.546875,226189.734375,233958.3125,273175.15625,0.0
1763252366.965597,252895.515625,279791.5625,286408.375,264355.53125,242565.703125,226198.234375,233984.59375,273171.59375,0.0
1763252366.9656687,252898.734375,279791.8125,286412.84375,264361.15625,242571.0625,226200.203125,233977.890625,273169.4375,0.0
1763252366.9743586,252900.25,279775.71875,286426.8125,264377.875,242583.578125,226208.25,233976.546875,273196.34375,0.0
1763252366.9744303,252899.625,279771.0625,286427.15625,264376.96875,242585.28125,226212.359375,233984.328125,273201.375,0.0
1763252366.980631,252897.65625,279794.0625,286412.6875,264358.125,242576.078125,226217.09375,233997.5625,273178.90625,0.0
1763252366.980703,252891.9375,279787.96875,286404.375,264348.90625,242565.25,226201.625,233976.90625,273160.25,0.0
1763252366.986796,252892.484375,279771.25,286413.9375,264361.0625,242572.234375,226208.96875,233972.53125,273176.875,0.0
1763252366.986846,252897.03125,279775.09375,286421.53125,264366.6875,242579.296875,226220.140625,233976.1875,273182.9375,0.0
1763252367.0014434,252894.625,279783.78125,286406.15625,264351.3125,242570.796875,226224.34375,233986.203125,273172.125,0.0
1763252367.0015204,252896.328125,279783.59375,286400.59375,264347.46875,242564.984375,226199.125,233987.375,273165.0625,0.0
1763252367.0075257,252889.796875,279755.875,286398.375,264342.90625,242554.34375,226182.3125,233962.15625,273154.25,0.0
1763252367.0106163,252902.3125,279758.8125,286416.6875,264360.0,242569.546875,226205.828125,233963.140625,273174.09375,0.0
1763252367.0106874,252910.984375,279789.84375,286416.96875,264360.1875,242574.90625,226221.484375,233984.15625,273176.59375,0.0
1763252367.0123792,252919.75,279831.6875,286423.03125,264359.8125,242587.34375,226237.484375,234009.453125,273179.625,0.0
1763252367.014756,252913.3125,279804.15625,286422.25,264359.28125,242586.796875,226238.5625,234004.171875,273180.8125,0.0
1763252367.0244613,252891.84375,279748.90625,286404.375,264344.4375,242564.0,226207.078125,233966.0,273171.6875,0.0
1763252367.0245323,252907.40625,279793.25,286414.28125,264351.15625,242578.578125,226226.578125,233990.140625,273180.4375,0.0
1763252367.0306423,252903.109375,279773.65625,286398.09375,264341.125,242570.34375,226214.59375,233998.28125,273173.75,0.0
1763252367.0307157,252899.8125,279754.90625,286397.28125,264339.96875,242563.109375,226203.859375,233982.8125,273170.78125,0.0
1763252367.0393836,252900.25,279747.03125,286406.15625,264345.0625,242564.1875,226202.171875,233962.96875,273174.0,0.0
1763252367.0394557,252910.265625,279759.1875,286410.625,264348.5625,242571.421875,226206.546875,233976.109375,273180.625,0.0
1763252367.0481036,252914.03125,279789.5,286407.21875,264342.75,242574.828125,226215.125,233994.34375,273173.03125,0.0
1763252367.0481727,252908.65625,279776.0,286403.09375,264337.65625,242566.328125,226203.78125,233974.578125,273163.625,0.0
1763252367.0500405,252903.5625,279751.6875,286403.8125,264337.375,242563.46875,226199.03125,233966.890625,273168.375,0.0
1763252367.0592225,252906.953125,279760.4375,286405.78125,264338.71875,242569.453125,226203.59375,233976.546875,273176.59375,0.0
1763252367.0592644,252913.9375,279797.4375,286408.03125,264341.03125,242585.640625,226225.234375,234009.359375,273183.125,0.0
1763252367.0613794,252907.671875,279787.09375,286404.09375,264337.03125,242580.546875,226214.234375,233988.078125,273169.71875,0.0
1763252367.0613952,252908.484375,279770.1875,286413.125,264346.59375,242584.484375,226216.296875,233983.34375,273185.34375,0.0
1763252367.07752,252906.328125,279764.1875,286409.71875,264341.5625,242582.953125,226214.859375,233985.84375,273181.6875,0.0
1763252367.0826054,252909.46875,279794.9375,286402.5625,264330.03125,242587.15625,226222.375,234004.453125,273173.03125,0.0
1763252367.0826762,252908.03125,279795.9375,286400.78125,264325.9375,242591.265625,226226.046875,234000.6875,273167.3125,0.0
1763252367.0827096,252904.09375,279774.21875,286405.34375,264331.46875,242593.78125,226222.109375,233992.015625,273178.5625,0.0
1763252367.1067293,252904.09375,279766.34375,286410.0,264339.25,242602.8125,226230.15625,233997.828125,273198.0625,0.0
1763252367.1067755,252905.625,279794.5,286401.78125,264329.15625,242605.9375,226240.796875,234015.890625,273189.84375,0.0
1763252367.1113267,252902.671875,279798.96875,286394.53125,264319.9375,242602.09375,226235.0625,234017.140625,273184.28125,0.0
1763252367.113729,252907.671875,279784.9375,286406.6875,264332.5625,242608.96875,226235.34375,234012.5,273197.4375,0.0
1763252367.1162012,252893.546875,279755.53125,286399.4375,264326.03125,242599.40625,226220.40625,233993.8125,273193.125,0.0
1763252367.1188757,252901.328125,279782.875,286398.1875,264322.25,242601.734375,226226.046875,234005.875,273188.5625,0.0
1763252367.12133,252892.65625,279793.15625,286385.6875,264307.25,242597.53125,226241.0625,234016.875,273180.34375,0.0
1763252367.1238065,252899.1875,279787.625,286398.28125,264320.125,242609.78125,226254.203125,234023.578125,273196.0,0.0
1763252367.128816,252891.765625,279757.65625,286394.78125,264317.53125,242599.234375,226222.015625,233985.40625,273184.46875,0.0
1763252367.1313288,252893.640625,279772.59375,286388.96875,264309.75,242596.640625,226215.40625,233986.921875,273181.34375,0.0
1763252367.1368525,252897.21875,279795.21875,286386.3125,264303.40625,242601.640625,226228.625,234010.4375,273181.15625,0.0
1763252367.1369236,252887.109375,279769.28125,286380.03125,264297.3125,242592.53125,226221.5625,233997.65625,273169.25,0.0
1763252367.1413498,252892.125,279748.71875,286390.5,264311.4375,242597.0,226220.046875,233984.859375,273181.6875,0.0
1763252367.1475327,252893.8125,279760.4375,286387.5625,264309.125,242599.671875,226224.609375,233989.609375,273184.28125,0.0
