timestamps,Fz,C3,Cz,C4,Pz,PO7,Oz,PO8,stim
1772498288.355593,222058.6875,227291.953125,250336.328125,692215.5,655617.625,227666.75,705766.5625,206423.5625,0.0
1772498288.3693357,222075.671875,227285.328125,250331.234375,692173.9375,655512.5625,227663.34375,705764.9375,206412.203125,0.0
1772498288.3693686,222089.53125,227281.75,250323.8125,692143.0625,655446.0,227658.96875,705768.25,206404.15625,0.0
1772498288.3717759,222081.671875,227287.84375,250328.015625,692100.0,655377.0625,227665.765625,705770.6875,206411.578125,0.0
1772498288.3717923,222047.96875,227279.078125,250319.078125,692018.1875,655252.0,227647.96875,705769.875,206397.0,0.0
1772498288.3806236,222066.015625,227279.96875,250315.859375,691975.25,655152.8125,227646.53125,705770.0625,206396.734375,0.0
1772498288.3806477,222082.734375,227281.9375,250314.421875,691950.875,655083.6875,227659.765625,705769.4375,206399.6875,0.0
1772498288.3893735,222075.5,227278.625,250307.625,691919.5,655021.375,227658.25,705772.4375,206401.03125,0.0
1772498288.389404,222054.578125,227277.734375,250301.109375,691860.125,654933.6875,227643.859375,705776.375,206395.21875,0.0
1772498288.3943093,222060.65625,227281.125,250296.90625,691808.8125,654830.0625,227646.53125,705776.375,206395.484375,0.0
1772498288.39433,222072.90625,227269.6875,250285.015625,691775.0,654751.8125,227634.109375,705773.875,206391.375,0.0
1772498288.3963304,222072.28125,227270.84375,250283.484375,691742.5625,654689.4375,227637.234375,705773.875,206399.0625,0.0
1772498288.407608,222050.375,227269.78125,250281.171875,691687.125,654607.5,227636.875,705777.9375,206404.59375,0.0
1772498288.4119043,222046.53125,227262.359375,250275.53125,691632.125,654511.4375,227626.25,705780.3125,206403.4375,0.0
1772498288.411955,222065.75,227257.796875,250268.375,691599.6875,654438.375,227628.203125,705779.625,206402.984375,0.0
1772498288.4180648,222066.640625,227257.4375,250266.328125,691567.3125,654376.9375,227636.609375,705779.25,206393.25,0.0
1772498288.418092,222044.390625,227249.125,250258.90625,691508.8125,654296.75,227625.796875,705780.625,206381.984375,0.0
1772498288.4199696,222031.875,227255.46875,250260.515625,691441.25,654196.9375,227626.59375,705783.4375,206381.265625,0.0
1772498288.436322,222061.734375,227263.875,250265.515625,691418.0625,654137.4375,227637.15625,705787.375,206387.703125,0.0
1772498288.439388,222065.390625,227267.265625,250266.5,691391.0,654083.0,227635.1875,705785.3125,206386.90625,0.0
1772498288.439414,222055.375,227268.4375,250269.28125,691345.8125,654017.4375,227637.15625,705784.625,206389.578125,0.0
1772498288.4412143,222058.59375,227284.625,250281.609375,691295.3125,653934.0,227660.9375,705787.1875,206403.703125,0.0
1772498288.4449663,222093.203125,227280.953125,250277.859375,691269.8125,653884.5625,227652.53125,705790.4375,206394.9375,0.0
1772498288.4493053,222107.59375,227275.140625,250275.4375,691242.125,653857.25,227633.484375,705795.625,206391.640625,0.0
1772498288.4493237,222103.9375,227283.453125,250277.40625,691204.5,653827.1875,227640.640625,705799.1875,206393.875,0.0
1772498288.467599,222077.90625,227278.1875,250272.765625,691133.9375,653742.625,227640.09375,705797.875,206394.59375,0.0
1772498288.4705808,222109.828125,227285.515625,250279.734375,691105.875,653690.3125,227642.15625,705797.6875,206397.1875,0.0
1772498288.470601,222137.546875,227300.984375,250297.34375,691092.1875,653670.0,227659.328125,705798.9375,206418.015625,0.0
1772498288.4725263,222122.609375,227285.609375,250287.0625,691047.9375,653617.4375,227653.515625,705795.6875,206412.375,0.0
1772498288.47497,222105.71875,227287.484375,250286.625,690984.875,653531.625,227654.671875,705798.3125,206402.546875,0.0
1772498288.4773316,222123.6875,227283.453125,250280.90625,690949.0625,653456.3125,227631.078125,705800.0,206401.203125,0.0
1772498288.485037,222145.0625,227282.828125,250278.21875,690931.1875,653425.8125,227626.953125,705805.4375,206402.09375,0.0
1772498288.4880664,222142.46875,227291.234375,250281.796875,690903.0625,653399.125,227636.875,705807.5,206406.484375,0.0
1772498288.488088,222112.6875,227291.0625,250277.140625,690833.25,653327.125,227637.59375,705805.875,206403.53125,0.0
1772498288.4925234,222116.453125,227282.921875,250267.21875,690776.9375,653263.375,227633.84375,705805.625,206393.515625,0.0
1772498288.4949758,222147.375,227285.328125,250270.265625,690751.5625,653246.5625,227635.71875,705804.3125,206396.90625,0.0
1772498288.4987185,222145.234375,227275.859375,250259.0,690714.625,653234.3125,227637.421875,705804.4375,206394.5,0.0
1772498288.5080705,222127.984375,227269.0625,250249.34375,690657.25,653210.1875,227640.09375,705811.0,206394.765625,0.0
1772498288.508093,222126.546875,227275.3125,250251.84375,690593.0,653146.875,227641.890625,705809.5625,206401.109375,0.0
1772498288.5125265,222136.125,227254.9375,250227.515625,690535.8125,653097.625,227607.90625,705802.3125,206364.28125,0.0
1772498288.514968,222128.703125,227235.265625,250206.15625,690485.625,653073.75,227589.5,705802.25,206347.5625,0.0
1772498288.518708,222108.21875,227235.71875,250208.65625,690425.8125,653030.0,227593.875,705804.125,206367.59375,0.0
1772498288.5280912,222111.625,227247.78125,250219.828125,690366.5625,652978.1875,227604.34375,705811.0625,206376.609375,0.0
1772498288.528133,222131.640625,227241.96875,250210.265625,690323.4375,652941.5,227600.3125,705811.25,206369.28125,0.0
1772498288.5300915,222113.5,227219.0,250190.78125,690270.875,652888.75,227572.859375,705800.875,206351.9375,0.0
1772498288.5387337,222101.78125,227210.40625,250185.046875,690221.125,652851.1875,227565.984375,705799.8125,206335.3125,0.0
1772498288.543069,222090.515625,227215.5,250189.4375,690161.4375,652775.1875,227567.765625,705798.375,206338.4375,0.0
1772498288.543086,222119.046875,227215.234375,250186.03125,690139.9375,652725.625,227563.75,705799.8125,206338.265625,0.0
1772498288.5519233,222129.953125,227210.765625,250180.859375,690113.8125,652685.875,227560.96875,705804.125,206339.0625,0.0
1772498288.5519514,222119.9375,227210.59375,250180.9375,690075.625,652622.0625,227568.125,705805.0,206343.09375,0.0
1772498288.5537188,222082.65625,227205.9375,250172.890625,690008.125,652492.3125,227565.265625,705798.8125,206332.453125,0.0
1772498288.557526,222107.15625,227215.234375,250176.296875,689988.75,652397.3125,227573.84375,705801.1875,206339.875,0.0
1772498288.5718577,222127.09375,227217.46875,250178.96875,689977.9375,652321.625,227578.234375,705805.8125,206351.40625,0.0
1772498288.571884,222110.015625,227215.328125,250175.9375,689937.9375,652225.125,227571.96875,705803.375,206348.625,0.0
1772498288.5737128,222078.359375,227222.390625,250180.671875,689869.125,652079.375,227572.15625,705796.4375,206354.09375,0.0
1772498288.5762353,222093.921875,227223.546875,250180.9375,689840.0625,651964.375,227572.328125,705795.4375,206358.46875,0.0
1772498288.578712,222102.59375,227211.390625,250172.265625,689812.9375,651871.6875,227555.796875,705794.5625,206350.6875,0.0
1772498288.5875647,222088.640625,227199.140625,250166.375,689777.0,651780.5625,227552.484375,705796.6875,206350.59375,0.0
1772498288.5905917,222066.375,227211.65625,250180.765625,689728.375,651661.375,227565.625,705796.6875,206365.796875,0.0
1772498288.590613,222070.9375,227213.984375,250184.703125,689684.3125,651526.0,227571.078125,705793.625,206369.640625,0.0
1772498288.592562,222079.796875,227196.828125,250166.28125,689646.75,651418.375,227562.578125,705791.0625,206354.359375,0.0
1772498288.6062417,222081.046875,227201.828125,250168.25,689621.4375,651340.5625,227565.984375,705796.0,206356.953125,0.0
1772498288.609296,222047.25,227187.96875,250154.125,689553.125,651228.1875,227553.375,705795.8125,206346.75,0.0
1772498288.6093125,222038.9375,227190.5625,250150.09375,689491.0625,651112.8125,227558.109375,705794.75,206344.875,0.0
1772498288.611218,222063.78125,227185.015625,250137.84375,689460.5,651051.0625,227552.921875,705794.4375,206333.96875,0.0
1772498288.6149924,222068.4375,227185.28125,250134.890625,689433.6875,651015.5,227547.5625,705797.75,206336.296875,0.0
1772498288.6187348,222049.03125,227179.921875,250127.46875,689382.1875,650959.25,227536.828125,705798.5,206335.046875,0.0
1772498288.6336775,222025.96875,227167.140625,250111.296875,689311.125,650871.5625,227518.0625,705794.8125,206314.75,0.0
1772498288.6337092,222060.03125,227161.765625,250102.703125,689289.625,650845.75,227512.96875,705793.9375,206304.015625,0.0
1772498288.6337197,222081.21875,227163.65625,250099.3125,689279.625,650861.625,227517.875,705799.625,206301.515625,0.0
1772498288.6368003,222077.90625,227161.953125,250097.96875,689246.5625,650863.9375,227513.859375,705802.6875,206300.359375,0.0
1772498288.636832,222059.671875,227164.8125,250096.984375,689185.4375,650816.6875,227516.09375,705797.9375,206303.296875,0.0
1772498288.6387253,222101.78125,227176.53125,250107.0,689181.125,650827.3125,227528.15625,705800.6875,206312.15625,0.0
1772498288.6526294,222121.984375,227176.703125,250106.640625,689175.1875,650863.4375,227522.34375,705804.5625,206303.75,0.0
1772498288.654981,222119.84375,227180.375,250110.9375,689158.5,650894.25,227523.25,705808.3125,206309.109375,0.0
1772498288.65805,222107.5,227188.78125,250116.921875,689112.0625,650886.5,227529.234375,705810.75,206320.5625,0.0
1772498288.6580665,222137.640625,227190.828125,250114.515625,689093.875,650911.375,227530.125,705813.4375,206315.90625,0.0
1772498288.6599755,222154.09375,227186.53125,250108.703125,689083.3125,650971.625,227528.96875,705817.6875,206313.40625,0.0
1772498288.668735,222161.6875,227199.953125,250120.234375,689074.8125,651046.375,227547.296875,705824.5625,206332.09375,0.0
1772498288.673078,222147.828125,227207.453125,250127.296875,689031.375,651076.75,227556.5,705829.75,206340.40625,0.0
1772498288.673096,222167.671875,227209.421875,250124.4375,689006.5,651116.5625,227552.578125,705833.25,206338.703125,0.0
1772498288.6787357,222194.859375,227206.484375,250118.359375,689002.1875,651195.8125,227549.53125,705837.875,206342.640625,0.0
1772498288.684846,222191.28125,227210.328125,250122.015625,688989.6875,651268.25,227561.59375,705842.3125,206354.265625,0.0
1772498288.6930876,222163.296875,227210.953125,250119.078125,688940.3125,651299.375,227560.53125,705845.4375,206355.0625,0.0
1772498288.6931095,222161.6875,227213.453125,250109.328125,688896.5625,651322.8125,227559.359375,705844.9375,206352.03125,0.0
1772498288.704332,222175.546875,227208.4375,250099.84375,688881.9375,651378.875,227554.625,705849.25,206346.3125,0.0
1772498288.70436,222165.265625,227204.6875,250097.34375,688860.6875,651431.875,227551.859375,705853.625,206340.578125,0.0
1772498288.7067912,222134.859375,227206.5625,250094.9375,688811.0,651445.4375,227556.140625,705854.1875,206343.265625,0.0
1772498288.7067995,222119.390625,227206.5625,250089.65625,688757.6875,651437.625,227556.421875,705855.0,206348.71875,0.0
1772498288.7087212,222143.984375,227210.140625,250090.015625,688744.25,651474.875,227558.03125,705858.8125,206349.796875,0.0
1772498288.7175393,222138.984375,227215.15625,250090.546875,688722.375,651515.0,227557.125,705863.125,206345.140625,0.0
1772498288.7318215,222106.96875,227210.046875,250086.703125,688668.125,651519.3125,227550.15625,705865.5,206344.609375,0.0
1772498288.7318456,222085.609375,227205.046875,250084.109375,688601.0625,651482.125,227542.640625,705862.0625,206346.9375,0.0
1772498288.7386599,222115.640625,227212.90625,250089.484375,688581.3125,651492.6875,227546.84375,705864.5625,206345.59375,0.0
1772498288.7386792,222101.96875,227207.546875,250085.546875,688543.1875,651485.625,227538.71875,705864.8125,206337.28125,0.0
1772498288.738686,222070.9375,227205.140625,250083.3125,688487.5,651454.875,227531.203125,705863.5,206330.125,0.0
1772498288.7418046,222042.0625,227206.484375,250085.984375,688423.9375,651394.0,227537.28125,705863.9375,206338.890625,0.0
1772498288.7418122,222065.03125,227211.03125,250089.125,688403.625,651374.5625,227545.953125,705868.5,206348.984375,0.0
1772498288.743732,222070.9375,227214.34375,250094.03125,688385.5625,651364.3125,227551.859375,705872.5,206358.375,0.0
1772498288.7575805,222053.78125,227212.5625,250095.203125,688347.375,651331.3125,227556.859375,705874.1875,206366.25,0.0
1772498288.7618115,222017.5625,227212.109375,250094.390625,688281.125,651246.875,227550.96875,705871.5,206366.78125,0.0
1772498288.7618272,222028.734375,227212.28125,250088.578125,688247.0625,651192.6875,227553.375,705874.3125,206362.40625,0.0
1772498288.768078,222034.015625,227208.265625,250085.984375,688218.625,651151.125,227560.34375,705874.9375,206364.28125,0.0
1772498288.7681005,222025.078125,227219.625,250099.40625,688190.9375,651106.625,227576.890625,705877.0,206384.484375,0.0
1772498288.7843435,221990.921875,227225.96875,250103.25,688121.3125,651011.9375,227584.75,705877.6875,206384.484375,0.0
1772498288.7843723,221992.171875,227224.8125,250098.15625,688075.0625,650926.9375,227571.96875,705878.3125,206367.3125,0.0
1772498288.786771,222009.96875,227230.265625,250101.546875,688058.5,650876.5625,227576.359375,705883.125,206379.03125,0.0
1772498288.7867887,222001.46875,227229.984375,250101.015625,688031.0,650818.625,227577.96875,705885.3125,206388.328125,0.0
1772498288.7885723,221972.59375,227230.265625,250096.90625,687966.3125,650705.625,227574.296875,705882.875,206391.90625,0.0
1772498288.7950113,221983.671875,227245.09375,250107.453125,687928.25,650594.125,227590.5625,705885.9375,206411.21875,0.0
1772498288.797551,222007.015625,227255.65625,250118.0,687915.3125,650511.875,227604.515625,705891.375,206425.171875,0.0
1772498288.8043723,221988.6875,227252.703125,250110.9375,687876.0625,650416.6875,227610.15625,705893.0625,206420.6875,0.0
1772498288.804397,221952.921875,227246.53125,250103.609375,687810.125,650294.0,227610.234375,705891.125,206414.96875,0.0
1772498288.8062308,221955.15625,227260.203125,250117.28125,687765.6875,650161.3125,227628.203125,705891.4375,206425.796875,0.0
1772498288.8180656,221984.65625,227268.96875,250123.28125,687750.5,650058.4375,227631.875,705895.0625,206430.625,0.0
1772498288.8180904,221981.71875,227270.484375,250117.46875,687720.1875,649959.0625,227630.265625,705894.5,206437.234375,0.0
1772498288.8205984,221954.703125,227272.1875,250112.1875,687666.0,649836.0625,227625.890625,705889.375,206444.75,0.0
1772498288.8206196,221945.40625,227272.8125,250111.46875,687613.875,649702.5,227618.640625,705889.3125,206443.578125,0.0
1772498288.828753,221982.0625,227275.953125,250114.328125,687604.875,649618.0625,227622.84375,705891.25,206448.671875,0.0
1772498288.8331175,221978.84375,227273.265625,250107.359375,687572.125,649530.5625,227615.515625,705888.75,206436.4375,0.0
1772498288.8331463,221957.75,227262.890625,250098.15625,687523.9375,649434.875,227603.171875,705888.3125,206431.25,0.0
1772498288.8349988,221943.796875,227259.9375,250094.21875,687464.25,649314.125,227597.8125,705884.3125,206424.0,0.0
1772498288.8437653,221976.34375,227267.8125,250098.328125,687452.1875,649235.4375,227603.171875,705886.875,206432.046875,0.0
1772498288.8475676,221993.328125,227277.375,250106.109375,687447.875,649179.6875,227612.5625,705889.5,206447.34375,0.0
1772498288.8568428,221999.328125,227288.90625,250118.359375,687432.25,649128.125,227624.359375,705893.875,206454.21875,0.0
1772498288.8568726,221993.609375,227307.0625,250134.453125,687380.4375,649030.25,227638.046875,705895.3125,206466.109375,0.0
1772498288.8587444,222011.578125,227295.4375,250121.9375,687340.5625,648942.625,227624.453125,705892.5625,206456.8125,0.0
1772498288.86375,222017.65625,227264.140625,250096.71875,687305.1875,648896.375,227611.21875,705895.125,206435.890625,0.0
1772498288.8675547,222021.5,227277.203125,250108.515625,687279.5,648855.1875,227621.765625,705897.6875,206444.125,0.0
1772498288.8768897,222012.828125,227296.78125,250128.8125,687233.375,648782.0625,227640.453125,705898.3125,206466.03125,0.0
1772498288.8769166,222041.96875,227310.453125,250140.703125,687208.375,648719.6875,227649.484375,705900.5,206471.390625,0.0
1772498288.898866,222067.625,227305.546875,250139.546875,687193.625,648689.75,227651.640625,705902.875,206475.859375,0.0
1772498288.9037468,222058.875,227284.625,250127.921875,687158.0,648664.3125,227635.8125,705905.3125,206463.875,0.0
1772498288.9062407,222038.75,227285.6875,250126.21875,687103.0,648614.0625,227643.046875,705906.75,206467.453125,0.0
1772498288.9087906,222047.515625,227294.8125,250128.640625,687057.4375,648564.3125,227657.71875,705907.4375,206467.71875,0.0
1772498288.9112473,222078.09375,227296.328125,250124.609375,687034.1875,648546.8125,227652.96875,705907.3125,206460.921875,0.0
1772498288.9137359,222083.71875,227297.671875,250123.71875,687006.1875,648540.4375,227655.125,705909.875,206463.609375,0.0
1772498288.916232,222081.9375,227320.203125,250138.5625,686972.75,648528.125,227667.375,705916.875,206485.78125,0.0
1772498288.9187212,222087.03125,227325.65625,250137.21875,686926.1875,648491.9375,227672.109375,705920.8125,206478.890625,0.0
1772498288.9212217,222119.84375,227326.1875,250134.984375,686909.4375,648496.625,227676.9375,705926.125,206482.5625,0.0
1772498288.9245367,222105.546875,227303.84375,250114.328125,686866.125,648483.25,227659.234375,705921.5625,206465.125,0.0
1772498288.9245543,222087.75,227300.4375,250103.78125,686817.5625,648469.125,227655.296875,705921.4375,206458.0625,0.0
1772498288.926221,222082.46875,227310.453125,250111.109375,686767.0625,648431.1875,227665.84375,705925.25,206467.0,0.0
1772498288.928713,222108.21875,227307.234375,250108.515625,686745.125,648416.875,227661.828125,705920.5,206464.59375,0.0
1772498288.9325774,222102.234375,227277.640625,250085.453125,686705.375,648419.0625,227635.984375,705917.375,206439.65625,0.0
1772498288.9421785,222092.9375,227275.859375,250078.484375,686664.0625,648431.1875,227625.078125,705916.75,206436.515625,0.0
1772498288.9422128,222070.765625,227267.265625,250067.65625,686600.625,648402.25,227615.421875,705910.6875,206429.359375,0.0
1772498288.9443152,222100.796875,227256.90625,250058.71875,686581.25,648418.125,227609.078125,705908.4375,206417.828125,0.0
1772498288.944336,222133.34375,227258.15625,250062.484375,686582.875,648484.75,227619.984375,705916.9375,206423.109375,0.0
1772498288.9575691,222145.0625,227270.21875,250072.84375,686567.375,648548.5,227627.5,705921.4375,206435.171875,0.0
1772498288.959986,222128.78125,227259.40625,250063.546875,686508.75,648560.125,227616.140625,705919.0,206427.21875,0.0
1772498288.9625673,222157.578125,227244.46875,250052.90625,686481.8125,648599.125,227604.25,705920.625,206407.1875,0.0
1772498288.965,222195.21875,227255.109375,250055.765625,686471.1875,648678.3125,227611.046875,705923.0,206412.921875,0.0
1772498288.967548,222201.203125,227252.515625,250052.46875,686444.4375,648760.9375,227593.4375,705924.875,206399.0625,0.0
1772498288.9744885,222187.171875,227239.109375,250043.609375,686393.125,648816.0,227583.859375,705926.125,206392.796875,0.0
1772498288.9745097,222221.046875,227256.71875,250054.609375,686373.75,648883.625,227606.578125,705929.4375,206406.125,0.0
1772498288.982739,222262.265625,227256.28125,250056.21875,686372.375,648992.4375,227601.921875,705933.5,206413.1875,0.0
1772498288.9868424,222275.859375,227264.59375,250061.859375,686357.125,649096.125,227598.265625,705934.8125,206416.40625,0.0
1772498288.9868665,222257.796875,227259.9375,250051.65625,686299.25,649152.875,227588.953125,705934.0,206403.53125,0.0
1772498288.994988,222262.8125,227236.15625,250038.609375,686248.3125,649210.5,227580.109375,705934.3125,206397.625,0.0
1772498289.004351,222300.71875,227246.265625,250041.5625,686230.0,649308.375,227586.640625,705935.875,206398.515625,0.0
1772498289.0043736,222296.953125,227242.59375,250033.234375,686190.625,649402.9375,227588.25,705936.8125,206396.734375,0.0
1772498289.0062451,222279.609375,227239.5625,250032.265625,686134.5625,649470.0,227588.25,705936.9375,206392.171875,0.0
1772498289.0112412,222292.046875,227249.125,250045.484375,686095.4375,649538.875,227597.8125,705939.75,206409.25,0.0
1772498289.0137527,222330.046875,227253.0625,250048.0,686086.8125,649641.0625,227601.828125,705943.0625,206409.078125,0.0
1772498289.016818,222333.4375,227255.921875,250045.046875,686058.0625,649722.125,227600.9375,705942.625,206404.59375,0.0
1772498289.0168352,222312.96875,227257.703125,250043.171875,686007.1875,649764.8125,227598.609375,705941.5,206405.671875,0.0
1772498289.018744,222299.828125,227259.859375,250048.171875,685939.75,649764.875,227601.828125,705941.0,206412.375,0.0
1772498289.032682,222327.1875,227260.390625,250048.171875,685909.625,649796.8125,227603.796875,705941.875,206416.765625,0.0
1772498289.0368304,222333.078125,227265.21875,250053.890625,685887.0625,649837.375,227616.40625,705946.0,206429.453125,0.0
1772498289.036858,222306.4375,227262.171875,250051.921875,685826.75,649837.1875,227610.421875,705943.0625,206424.359375,0.0
1772498289.043083,222284.53125,227273.265625,250064.890625,685751.0,649793.3125,227621.765625,705942.25,206431.875,0.0
1772498289.0431104,222310.8125,227278.625,250076.609375,685719.5625,649779.5625,227631.875,705947.625,206447.34375,0.0
1772498289.0568476,222309.484375,227281.484375,250075.0,685678.125,649769.5625,227632.234375,705950.1875,206450.203125,0.0
1772498289.0568728,222284.171875,227281.40625,250073.921875,685618.6875,649738.0,227631.34375,705950.625,206444.65625,0.0
1772498289.0594015,222244.125,227277.90625,250075.890625,685532.0,649653.375,227638.3125,705948.6875,206452.4375,0.0
1772498289.0594275,222256.015625,227286.046875,250082.59375,685486.0,649589.8125,227635.8125,705947.8125,206457.53125,0.0
1772498289.068264,222247.15625,227274.34375,250068.5625,685432.75,649534.0625,227621.765625,705944.375,206437.59375,0.0
1772498289.0682948,222231.0625,227281.578125,250071.421875,685387.875,649482.375,227625.796875,705942.125,206438.578125,0.0
1772498289.0743232,222193.703125,227289.796875,250074.546875,685317.0625,649380.375,227622.84375,705939.75,206449.9375,0.0
1772498289.0743437,222193.421875,227293.5625,250071.15625,685262.125,649285.1875,227635.546875,705942.3125,206461.640625,0.0
1772498289.0881512,222194.859375,227281.9375,250061.578125,685218.0625,649215.3125,227632.859375,705942.75,206444.125,0.0
1772498289.0881808,222175.09375,227287.296875,250065.34375,685169.75,649143.6875,227643.9375,705940.75,206449.75,0.0
1772498289.0949097,222131.296875,227287.125,250059.078125,685088.9375,649024.5,227645.640625,705937.9375,206450.828125,0.0
1772498289.0949376,222126.546875,227294.8125,250064.71875,685029.0625,648902.75,227651.984375,705937.0625,206459.40625,0.0
1772498289.0949469,222144.875,227299.90625,250070.4375,684992.125,648819.5625,227661.828125,705939.375,206469.78125,0.0
1772498289.1037607,222123.6875,227293.65625,250065.078125,684937.9375,648730.875,227651.09375,705938.3125,206458.25,0.0
1772498289.1062348,222087.921875,227296.6875,250067.390625,684866.0625,648621.375,227658.34375,705938.125,206459.59375,0.0
1772498289.1262512,222074.609375,227300.796875,250068.921875,684790.8125,648487.25,227660.21875,705939.0,206458.515625,0.0
1772498289.126282,222094.8125,227312.328125,250072.484375,684756.5625,648388.8125,227660.578125,705940.25,206462.453125,0.0
1772498289.1262915,222087.296875,227314.21875,250076.328125,684722.9375,648293.3125,227663.078125,705938.375,206471.921875,0.0
1772498289.1312244,222056.640625,227321.546875,250079.109375,684663.8125,648168.25,227664.6875,705935.0625,206473.0,0.0
1772498289.1349175,222033.390625,227329.859375,250081.703125,684591.125,648010.1875,227660.671875,705933.3125,206474.34375,0.0
1772498289.1349373,222055.296875,227325.828125,250074.546875,684560.5625,647902.0625,227654.859375,705934.5625,206462.09375,0.0
1772498289.134945,222047.609375,227294.984375,250056.671875,684519.625,647814.75,227648.234375,705936.9375,206457.34375,0.0
1772498289.1375477,222034.28125,227308.484375,250067.84375,684479.625,647708.25,227663.34375,705940.8125,206476.3125,0.0
1772498289.1399963,222001.375,227314.75,250069.359375,684402.3125,647534.4375,227663.078125,705937.3125,206476.484375,0.0
1772498289.1425433,222012.375,227312.15625,250065.875,684356.4375,647383.375,227657.890625,705934.8125,206473.71875,0.0
1772498289.1462426,222026.59375,227328.25,250079.28125,684333.625,647270.25,227675.234375,705939.0,206495.171875,0.0
1772498289.1580691,222014.53125,227327.359375,250078.578125,684292.9375,647155.1875,227673.1875,705939.8125,206496.421875,0.0
1772498289.1580873,221991.453125,227324.671875,250073.828125,684228.3125,647014.125,227668.4375,705940.625,206489.53125,0.0
1772498289.1605835,222010.328125,227324.046875,250072.765625,684199.6875,646889.8125,227668.53125,705939.8125,206479.4375,0.0
1772498289.1605997,222014.875,227323.78125,250068.203125,684170.3125,646776.5625,227672.46875,705934.4375,206469.6875,0.0
1772498289.1687272,222005.84375,227311.53125,250060.78125,684141.0625,646683.9375,227673.453125,705935.0625,206468.890625,0.0
1772498289.1712215,221982.15625,227322.53125,250066.328125,684086.0,646558.5,227676.046875,705935.6875,206477.375,0.0
1772498289.1749868,221999.59375,227328.96875,250072.578125,684057.1875,646448.0625,227682.75,705938.1875,206485.6875,0.0
1772498289.179315,222033.75,227335.21875,250076.15625,684051.3125,646378.125,227686.59375,705940.0,206491.765625,0.0
1772498289.179331,222044.65625,227351.5,250086.625,684045.9375,646314.0625,227697.953125,705939.5,206497.40625,0.0
1772498289.1875775,222006.828125,227311.703125,250052.90625,683981.0,646209.375,227674.703125,705937.0625,206473.4375,0.0
1772498289.1912267,222014.34375,227315.203125,250053.890625,683938.1875,646108.875,227673.625,705939.375,206470.578125,0.0
1772498289.1975396,222050.828125,227327.4375,250064.625,683931.75,646043.875,227681.140625,705941.375,206481.578125,0.0
1772498289.20937,222054.125,227319.21875,250061.40625,683906.9375,645985.8125,227677.03125,705939.625,206478.09375,0.0
1772498289.209394,222053.6875,227332.625,250078.65625,683876.25,645924.125,227695.171875,705944.375,206494.28125,0.0
1772498289.211816,222067.1875,227350.328125,250094.03125,683842.5625,645843.25,227716.546875,705951.0,206512.15625,0.0
1772498289.211846,222090.703125,227339.515625,250085.546875,683820.625,645775.8125,227700.890625,705948.875,206506.34375,0.0
1772498289.2162292,222098.390625,227345.6875,250091.09375,683798.125,645715.4375,227702.859375,705948.125,206511.171875,0.0
1772498289.2187269,222101.875,227349.796875,250102.0,683773.5,645650.125,227710.015625,705951.625,206518.78125,0.0
1772498289.2212796,222075.40625,227328.609375,250079.203125,683697.8125,645541.3125,227698.03125,705952.5,206495.078125,0.0
1772498289.2237344,222104.828125,227331.28125,250080.53125,683681.875,645483.1875,227701.078125,705957.375,206501.15625,0.0
1772498289.23498,222123.0625,227353.109375,250092.609375,683672.3125,645442.9375,227714.3125,705961.625,206513.234375,0.0
1772498289.2380774,222097.140625,227353.109375,250084.109375,683622.3125,645371.875,227703.125,705958.3125,206504.46875,0.0
1772498289.238093,222061.28125,227329.59375,250070.796875,683548.5625,645255.8125,227691.234375,705955.125,206497.765625,0.0
1772498289.2399848,222091.140625,227331.015625,250074.375,683528.375,645175.625,227700.8125,705957.0,206503.75,0.0
1772498289.248746,222087.921875,227324.5,250054.515625,683496.0625,645106.125,227691.6875,705957.0625,206495.796875,0.0
1772498289.251803,222064.0625,227313.9375,250039.40625,683450.1875,645036.0,227679.265625,705958.625,206489.453125,0.0
1772498289.2518144,222039.828125,227315.375,250043.515625,683389.125,644922.0,227673.359375,705959.125,206496.0625,0.0
1772498289.2626195,222059.9375,227318.5,250041.28125,683354.625,644839.625,227683.1875,705961.8125,206486.671875,0.0
1772498289.2655952,222073.625,227328.34375,250048.796875,683328.5625,644776.4375,227699.109375,705962.25,206493.296875,0.0
1772498289.2656136,222054.75,227330.125,250049.0625,683286.6875,644692.1875,227698.65625,705961.0,206497.046875,0.0
1772498289.267547,222020.15625,227328.34375,250045.125,683210.9375,644557.5625,227688.203125,705958.875,206486.59375,0.0
1772498289.2762964,222018.90625,227323.15625,250038.515625,683156.0625,644433.25,227683.015625,705960.1875,206484.4375,0.0
1772498289.278738,222032.5,227328.0625,250046.296875,683134.5,644338.875,227691.6875,705960.5625,206504.5625,0.0
1772498289.2812607,222027.484375,227329.59375,250049.6875,683103.9375,644241.9375,227684.53125,705961.9375,206502.765625,0.0
1772498289.290053,221984.75,227316.625,250031.90625,683025.0,644126.875,227673.265625,705962.4375,206488.109375,0.0
1772498289.2943103,221980.453125,227319.84375,250038.96875,682975.75,644000.4375,227666.03125,705961.75,206493.109375,0.0
1772498289.2943287,221992.703125,227315.46875,250024.390625,682935.5625,643909.875,227655.484375,705958.9375,206477.203125,0.0
1772498289.3050346,221993.0625,227326.28125,250026.71875,682909.125,643842.5,227668.890625,705961.4375,206485.421875,0.0
1772498289.3080497,221967.578125,227306.875,250023.765625,682858.875,643747.5,227666.65625,705963.0625,206491.328125,0.0
1772498289.3080723,221945.859375,227293.65625,250011.515625,682794.5,643622.8125,227652.890625,705961.4375,206476.484375,0.0
1772498289.309836,221982.78125,227307.6875,250020.1875,682777.25,643542.9375,227657.09375,705963.1875,206476.578125,0.0
1772498289.3193407,221985.46875,227300.625,250016.171875,682739.6875,643459.1875,227654.3125,705959.125,206470.140625,0.0
1772498289.3193676,221976.796875,227299.734375,250010.171875,682689.25,643395.625,227658.703125,705962.875,206463.25,0.0
1772498289.3212411,221980.1875,227322.4375,250029.578125,682643.5,643311.3125,227678.1875,705967.625,206482.390625,0.0
1772498289.3237407,222020.25,227324.9375,250032.078125,682627.75,643245.75,227673.0,705969.625,206479.34375,0.0
1772498289.3325622,222029.1875,227312.328125,250022.328125,682589.125,643182.3125,227661.296875,705965.375,206467.0,0.0
1772498289.3368602,222017.109375,227305.265625,250012.234375,682540.3125,643112.125,227650.109375,705962.6875,206450.734375,0.0
1772498289.3368924,222016.3125,227316.171875,250021.34375,682487.6875,643011.25,227660.3125,705964.3125,206464.0625,0.0
1772498289.3399973,222039.109375,227306.609375,250006.234375,682453.0,642935.375,227654.40625,705964.3125,206455.390625,0.0
1772498289.3437216,222083.71875,227329.5,250033.328125,682458.625,642909.25,227674.078125,705974.4375,206476.9375,0.0
1772498289.3581364,222071.03125,227322.078125,250021.96875,682402.4375,642836.9375,227660.390625,705969.875,206468.34375,0.0
1772498289.3581653,222055.921875,227320.03125,250018.21875,682340.0625,642739.8125,227652.4375,705972.1875,206470.5,0.0
1772498289.35999,222080.15625,227321.984375,250014.90625,682297.125,642653.625,227658.875,705972.125,206474.609375,0.0
1772498289.3625429,222083.90625,227312.609375,249993.546875,682234.1875,642580.5625,227644.75,705970.125,206467.640625,0.0
1772498289.366232,222089.453125,227320.03125,250006.421875,682199.125,642510.3125,227643.859375,705968.8125,206464.5,0.0
1772498289.38063,222064.859375,227303.390625,249995.78125,682127.25,642407.5625,227632.328125,705968.375,206444.203125,0.0
1772498289.380654,222085.6875,227321.359375,250007.40625,682076.0625,642308.3125,227648.140625,705969.125,206453.953125,0.0
1772498289.384988,222120.375,227330.3125,250009.109375,682057.5,642247.0,227660.671875,705972.3125,206459.671875,0.0
1772498289.3900075,222108.3125,227319.9375,249997.203125,682009.3125,642175.9375,227655.84375,705973.625,206458.875,0.0
1772498289.3925295,222071.65625,227312.25,249980.40625,681926.1875,642064.4375,227643.140625,705971.5625,206450.015625,0.0
1772498289.3949845,222083.71875,227329.5,249994.265625,681874.3125,641948.9375,227657.09375,705974.875,206458.875,0.0
1772498289.3975294,222131.734375,227358.015625,250022.953125,681873.4375,641864.6875,227677.46875,705976.5625,206483.453125,0.0
1772498289.401826,222104.46875,227333.25,249991.40625,681810.375,641759.375,227655.125,705971.5625,206456.453125,0.0
1772498289.401837,222100.09375,227341.484375,250005.703125,681762.9375,641672.375,227680.609375,705980.4375,206470.5,0.0
1772498289.4100132,222106.4375,227352.484375,250025.546875,681711.6875,641538.5625,227692.578125,705982.625,206489.09375,0.0
1772498289.4167025,222137.28125,227366.96875,250032.53125,681687.9375,641415.0,227684.625,705976.9375,206482.390625,0.0
1772498289.4167306,222117.25,227340.765625,250000.515625,681635.6875,641319.25,227671.125,705978.5625,206455.734375,0.0
1772498289.4243286,222077.640625,227307.78125,249978.875,681551.0625,641204.0,227646.8125,705979.875,206428.734375,0.0
1772498289.424348,222079.703125,227331.828125,250007.21875,681496.75,641062.4375,227663.53125,705981.125,206448.328125,0.0
1772498289.426246,222118.234375,227356.234375,250021.796875,681480.75,640946.9375,227684.796875,705982.8125,206461.28125,0.0
1772498289.4287455,222117.515625,227349.078125,250009.109375,681440.1875,640849.6875,227692.046875,705985.1875,206460.390625,0.0
1772498289.4325264,222105.1875,227343.09375,250002.84375,681386.5,640743.25,227687.046875,705987.8125,206457.078125,0.0
1772498289.4462917,222089.53125,227342.015625,250011.15625,681334.25,640595.5625,227690.703125,705989.375,206466.109375,0.0
1772498289.449341,222115.015625,227352.5625,250013.578125,681306.4375,640477.375,227687.9375,705990.25,206462.09375,0.0
1772498289.4493632,222116.0,227355.875,250012.953125,681270.375,640369.0,227689.90625,705984.875,206467.90625,0.0
1772498289.4512553,222079.4375,227322.53125,249982.1875,681204.125,640249.9375,227670.140625,705981.375,206451.359375,0.0
1772498289.453753,222076.296875,227331.015625,249998.546875,681162.125,640134.4375,227685.15625,705988.4375,206463.703125,0.0
1772498289.459998,222099.734375,227339.6875,250007.046875,681117.5,640015.6875,227690.34375,705990.8125,206468.96875,0.0
1772498289.4643557,222116.625,227346.046875,250010.984375,681088.375,639914.5,227688.109375,705989.625,206472.546875,0.0
1772498289.464376,222126.8125,227365.796875,250020.453125,681059.375,639834.75,227695.796875,705992.5625,206484.796875,0.0
1772498289.4738078,222094.359375,227331.46875,249988.0,680968.125,639717.9375,227677.390625,705995.875,206461.203125,0.0
1772498289.476232,222092.671875,227328.96875,249983.359375,680907.75,639591.1875,227672.734375,705998.3125,206461.375,0.0
1772498289.480585,222105.359375,227342.109375,249989.078125,680870.3125,639471.875,227679.625,705999.1875,206457.078125,0.0
1772498289.4806056,222090.609375,227361.328125,250001.234375,680821.375,639304.375,227690.609375,705997.125,206467.1875,0.0
1772498289.4912477,222054.40625,227346.671875,250001.40625,680766.5625,639105.1875,227690.171875,705992.375,206481.21875,0.0
1772498289.494316,222044.125,227340.40625,249987.203125,680699.6875,638916.5,227677.828125,705991.625,206462.53125,0.0
1772498289.4943306,222058.421875,227339.6875,249979.0625,680663.5,638763.8125,227666.921875,705991.125,206454.671875,0.0
1772498289.5075731,222045.015625,227334.859375,249977.71875,680635.75,638605.75,227653.328125,705985.0625,206448.40625,0.0
1772498289.5124192,222033.125,227335.40625,249987.109375,680613.0,638454.125,227660.21875,705987.75,206455.828125,0.0
1772498289.5124357,222038.3125,227347.46875,249999.625,680585.875,638302.0,227679.171875,705995.8125,206467.359375,0.0
1772498289.5124433,222099.546875,227392.625,250043.875,680611.8125,638168.875,227709.84375,705999.5625,206501.34375,0.0
1772498289.5150054,222077.90625,227358.203125,250009.546875,680571.6875,638014.9375,227697.328125,705996.9375,206487.125,0.0
1772498289.517549,222002.8125,227323.421875,249963.859375,680457.75,637800.0625,227664.953125,705991.9375,206451.1875,0.0
1772498289.5463066,221937.984375,227339.328125,249993.546875,680324.375,637389.875,227674.609375,705996.3125,206479.078125,0.0
1772498289.5487564,221996.546875,227384.9375,250041.640625,680355.1875,637141.0625,227708.859375,706000.8125,206519.9375,0.0
1772498289.55124,222002.8125,227375.90625,250015.890625,680356.8125,636992.9375,227696.25,705997.5625,206491.234375,0.0
1772498289.5537577,221981.359375,227346.84375,249989.4375,680322.6875,636852.5625,227688.828125,705999.125,206470.3125,0.0
1772498289.556284,221979.921875,227396.828125,250039.234375,680283.0,636622.875,227724.59375,706003.0625,206509.390625,0.0
1772498289.5587282,222022.75,227420.96875,250069.890625,680312.8125,636418.9375,227740.234375,706004.5625,206533.609375,0.0
1772498289.5612376,221986.546875,227345.6875,249996.140625,680253.375,636237.5,227692.21875,705996.125,206478.359375,0.0
1772498289.5637524,221988.328125,227352.484375,249999.71875,680253.9375,636116.0,227704.921875,706001.875,206487.84375,0.0
1772498289.5662327,221978.21875,227382.34375,250020.1875,680234.1875,635938.625,227725.75,706000.1875,206502.0625,0.0
1772498289.5687296,221984.578125,227367.765625,250001.40625,680218.875,635763.5625,227713.859375,705995.1875,206488.828125,0.0
1772498289.5712302,222004.0625,227358.640625,249988.71875,680222.0,635655.375,227705.375,705998.9375,206482.75,0.0
1772498289.5737965,222033.125,227389.3125,250024.75,680263.5625,635564.125,227729.953125,706006.6875,206514.84375,0.0
1772498289.5768368,222026.765625,227393.6875,250035.921875,680243.8125,635422.0625,227739.34375,706007.3125,206524.9375,0.0
1772498289.5768576,222039.828125,227393.6875,250034.140625,680226.1875,635270.9375,227741.125,706007.0625,206528.25,0.0
1772498289.5787315,222033.203125,227364.453125,250000.078125,680190.1875,635137.1875,227717.4375,706000.6875,206510.546875,0.0
1772498289.584999,222014.875,227343.8125,249977.09375,680166.5625,635020.125,227704.03125,705998.1875,206488.203125,0.0
1772498289.5999532,222022.296875,227358.640625,250001.40625,680169.25,634914.1875,227722.984375,706008.25,206517.25,0.0
1772498289.5999837,222030.34375,227388.859375,250026.890625,680161.0,634756.25,227738.53125,706008.125,206544.25,0.0
1772498289.5999928,222056.640625,227390.5625,250025.1875,680151.8125,634617.125,227737.109375,706007.4375,206531.296875,0.0
1772498289.6025472,222045.640625,227360.796875,249999.625,680118.625,634506.5,227726.015625,706009.75,206515.28125,0.0
1772498289.6049979,222023.109375,227352.921875,249993.8125,680089.5,634390.1875,227721.734375,706011.4375,206515.5625,0.0
1772498289.6075408,222020.25,227351.140625,249999.625,680068.75,634239.875,227716.71875,706010.0,206521.1875,0.0
1772498289.6112347,222056.984375,227355.703125,249999.796875,680070.5625,634134.375,227726.5625,706008.3125,206526.015625,0.0
1772498289.6200085,222074.609375,227362.046875,250002.3125,680076.0625,634065.3125,227723.96875,706015.8125,206520.203125,0.0
1772498289.6230612,222024.71875,227316.171875,249959.390625,680002.6875,633942.375,227684.0,706011.0,206483.015625,0.0
1772498289.6230729,222025.609375,227345.234375,249988.09375,679975.75,633806.875,227716.28125,706009.5,206512.515625,0.0
1772498289.625041,222082.5625,227365.171875,250005.703125,680014.8125,633739.125,227734.515625,706019.75,206534.0625,0.0
1772498289.6350632,222052.515625,227331.109375,249970.484375,679980.25,633630.9375,227707.0625,706012.875,206518.328125,0.0
1772498289.638065,222060.03125,227356.859375,249993.8125,679977.1875,633548.875,227726.921875,706017.1875,206531.734375,0.0
1772498289.6380816,222046.625,227373.578125,249999.71875,679922.9375,633412.5,227738.890625,706017.1875,206527.53125,0.0
1772498289.6462479,222062.265625,227364.28125,249989.515625,679905.0625,633291.125,227734.78125,706014.9375,206530.671875,0.0
1772498289.6493633,222051.0,227344.796875,249963.140625,679869.8125,633199.625,227720.125,706014.125,206510.734375,0.0
1772498289.6493895,222039.203125,227348.71875,249969.578125,679837.5625,633103.375,227725.75,706012.875,206514.125,0.0
1772498289.652544,222068.34375,227388.859375,250020.546875,679848.8125,633022.8125,227770.1875,706026.1875,206560.890625,0.0
1772498289.6668673,222060.203125,227369.90625,249996.046875,679801.3125,632886.875,227749.796875,706019.5,206542.5625,0.0
1772498289.6668963,222068.609375,227361.859375,249992.46875,679784.4375,632782.9375,227739.4375,706014.375,206532.0,0.0
1772498289.6687489,222063.421875,227349.078125,249980.21875,679763.625,632704.25,227731.203125,706016.875,206520.46875,0.0
1772498289.6712573,222057.34375,227361.6875,249985.5,679754.25,632623.9375,227736.578125,706024.25,206526.828125,0.0
1772498289.675009,222054.3125,227353.640625,249978.609375,679739.8125,632501.75,227732.453125,706019.5625,206521.09375,0.0
1772498289.680028,222073.53125,227351.9375,249974.40625,679713.375,632413.0625,227730.3125,706017.625,206526.015625,0.0
1772498289.6843472,222081.671875,227362.84375,249978.875,679742.4375,632359.5,227723.25,706024.4375,206520.5625,0.0
1772498289.6843748,222092.125,227396.90625,250018.671875,679747.9375,632272.75,227755.703125,706028.25,206550.15625,0.0
1772498289.6925528,222063.421875,227362.140625,249975.125,679816.0,632147.5,227737.640625,706028.8125,206522.171875,0.0
1772498289.6993566,222064.953125,227342.203125,249949.46875,679823.125,632059.625,227722.4375,706025.125,206508.140625,0.0
1772498289.6993792,222077.375,227356.40625,249962.78125,679809.5,632001.0,227724.328125,706027.5625,206516.8125,0.0
1772498289.701269,222083.28125,227373.125,249983.796875,679802.5,631930.625,227736.578125,706033.625,206536.296875,0.0
1772498289.7100375,222050.203125,227342.203125,249951.875,679805.4375,631801.5,227715.375,706030.1875,206514.921875,0.0
1772498289.7130961,222070.9375,227329.40625,249936.234375,679807.125,631728.625,227707.875,706031.0,206505.453125,0.0
1772498289.713119,222045.90625,227308.484375,249918.078125,679775.25,631637.0,227690.078125,706023.125,206486.59375,0.0
1772498289.7162538,222053.5,227327.09375,249941.59375,679803.75,631574.5625,227710.828125,706026.8125,206505.1875,0.0
1772498289.7356613,222025.34375,227314.484375,249926.9375,679801.6875,631454.6875,227690.796875,706021.0,206486.859375,0.0
1772498289.7357001,222058.6875,227324.21875,249938.015625,679769.6875,631380.375,227691.78125,706023.125,206500.0,0.0
1772498289.7375443,222073.625,227323.78125,249943.921875,679803.125,631308.75,227693.46875,706023.6875,206505.453125,0.0
1772498289.7399998,222056.8125,227317.4375,249933.28125,679827.1875,631228.3125,227692.578125,706022.0,206495.625,0.0
1772498289.7425373,222011.9375,227308.578125,249912.09375,679886.375,631078.4375,227669.15625,706010.4375,206465.21875,0.0
1772498289.7449896,222039.921875,227306.171875,249907.53125,679871.1875,630993.0625,227661.640625,706011.6875,206456.90625,0.0
1772498289.7487285,222072.375,227319.84375,249924.078125,679803.1875,630956.25,227662.90625,706018.4375,206473.359375,0.0
1772498289.760615,222065.671875,227325.5625,249924.515625,679865.0,630897.25,227667.375,706017.5,206481.3125,0.0
1772498289.7606452,222048.3125,227321.8125,249928.1875,679898.875,630804.8125,227680.953125,706018.625,206494.640625,0.0
1772498289.7630737,222055.375,227300.984375,249906.90625,679893.1875,630719.875,227663.53125,706020.375,206478.625,0.0
1772498289.763082,222069.78125,227307.15625,249910.125,679876.8125,630643.6875,227653.328125,706013.9375,206472.28125,0.0
1772498289.764982,222070.3125,227300.171875,249906.015625,679839.625,630580.625,227651.984375,706012.5,206472.1875,0.0
1772498289.771262,222034.109375,227283.640625,249891.4375,679824.9375,630471.6875,227642.78125,706008.375,206462.359375,0.0
1772498289.7755992,222038.578125,227284.265625,249897.703125,679813.875,630353.625,227645.46875,706004.5625,206466.03125,0.0
1772498289.7756183,222069.234375,227284.703125,249884.296875,679807.625,630303.875,227651.984375,706009.0,206455.46875,0.0
1772498289.7888207,222088.734375,227302.40625,249893.953125,679818.0625,630268.5,227657.453125,706013.6875,206466.109375,0.0
1772498289.7918475,222060.203125,227281.578125,249878.921875,679774.3125,630179.9375,227639.203125,706010.625,206446.09375,0.0
1772498289.7918673,222066.734375,227291.140625,249881.609375,679733.5,630082.5625,227646.09375,706009.9375,206450.015625,0.0
1772498289.7937343,222108.3125,227300.359375,249886.796875,679731.625,630035.0625,227651.015625,706010.25,206457.984375,0.0
1772498289.8000295,222110.71875,227299.015625,249885.71875,679729.125,629979.75,227644.296875,706006.0625,206455.109375,0.0
1772498289.8043516,222093.109375,227285.875,249870.515625,679702.375,629920.3125,227634.921875,706007.875,206444.296875,0.0
1772498289.8043785,222102.328125,227308.484375,249896.8125,679696.3125,629843.9375,227662.453125,706013.3125,206468.96875,0.0
1772498289.8062491,222124.046875,227305.453125,249885.359375,679677.9375,629769.375,227665.21875,706011.0625,206458.25,0.0
1772498289.8150072,222115.640625,227286.9375,249862.203125,679638.4375,629719.125,227659.59375,706009.9375,206442.59375,0.0
1772498289.8218782,222096.59375,227278.53125,249853.09375,679601.0625,629655.8125,227646.265625,706007.625,206435.890625,0.0
1772498289.8218992,222076.84375,227273.625,249848.078125,679549.5,629552.75,227638.9375,706004.8125,206436.875,0.0
1772498289.823734,222132.625,227279.875,249857.921875,679571.125,629520.5625,227641.796875,706011.625,206448.671875,0.0
1772498289.832616,222128.609375,227263.96875,249834.484375,679536.1875,629484.8125,227632.6875,706011.5625,206425.4375,0.0
1772498289.8348627,222108.84375,227259.671875,249833.234375,679501.625,629441.0625,227631.96875,706009.75,206433.84375,0.0
1772498289.8449976,222092.125,227259.234375,249838.421875,679458.1875,629351.8125,227624.640625,706003.375,206444.65625,0.0
1772498289.848083,222144.078125,227273.703125,249853.796875,679471.8125,629326.5625,227644.390625,706011.25,206450.015625,0.0
1772498289.8480964,222162.765625,227281.75,249857.921875,679468.5625,629309.375,227652.4375,706015.4375,206453.859375,0.0
1772498289.8539722,222137.640625,227267.265625,249840.75,679430.5625,629261.8125,227631.421875,706011.8125,206439.203125,0.0
1772498289.8562405,222101.515625,227254.046875,249827.609375,679364.9375,629173.75,227618.90625,706007.9375,206431.953125,0.0
1772498289.8587663,222144.15625,227282.296875,249859.25,679368.8125,629125.375,227647.15625,706013.25,206460.65625,0.0
1772498289.8625696,222174.46875,227289.625,249863.71875,679374.0,629107.875,227653.953125,706017.6875,206462.625,0.0
1772498289.8712664,222138.0,227260.125,249823.046875,679309.5,629056.5,227627.859375,706012.0,206437.5,0.0
1772498289.8743243,222101.96875,227262.453125,249820.625,679235.75,628968.0,227633.390625,706004.1875,206438.046875,0.0
1772498289.8743384,222145.421875,227279.4375,249837.890625,679240.125,628956.5,227654.5,706017.625,206448.765625,0.0
1772498289.885064,222181.625,227292.21875,249850.578125,679238.25,628948.0625,227665.671875,706023.125,206459.859375,0.0
1772498289.8881023,222148.28125,227275.234375,249833.78125,679188.125,628889.5,227646.09375,706013.125,206450.640625,0.0
1772498289.8881233,222116.09375,227273.171875,249829.390625,679130.8125,628820.75,227642.515625,706010.5625,206438.390625,0.0
1772498289.8899865,222131.828125,227286.765625,249847.8125,679114.0625,628765.6875,227652.34375,706015.8125,206450.203125,0.0
1772498289.893728,222155.421875,227274.78125,249841.546875,679108.6875,628733.75,227649.21875,706018.5,206451.09375,0.0
1772498289.9050472,222146.9375,227262.984375,249830.203125,679078.75,628701.5625,227652.625,706018.4375,206450.828125,0.0
1772498289.9080951,222146.3125,227284.171875,249852.546875,679069.625,628668.25,227668.359375,706021.875,206477.5625,0.0
1772498289.908118,222129.40625,227276.21875,249840.390625,679020.875,628590.25,227660.9375,706019.3125,206467.359375,0.0
1772498289.91,222150.953125,227275.3125,249831.8125,679009.75,628548.8125,227662.546875,706018.4375,206465.21875,0.0
1772498289.9162593,222153.640625,227271.921875,249826.625,678988.25,628518.125,227653.78125,706019.6875,206459.140625,0.0
1772498289.9205878,222138.4375,227269.859375,249834.484375,678957.625,628467.1875,227644.84375,706016.0,206461.640625,0.0
1772498289.9206028,222127.53125,227276.390625,249839.234375,678913.4375,628394.5625,227653.25,706016.25,206467.0,0.0
1772498289.9338293,222148.640625,227270.671875,249828.234375,678884.3125,628350.75,227649.9375,706016.0625,206461.546875,0.0
1772498289.9474545,222169.46875,227281.671875,249836.71875,678881.5,628344.375,227652.171875,706022.5,206470.9375,0.0
1772498289.947482,222162.578125,227300.796875,249847.0,678858.25,628313.0,227669.15625,706025.1875,206485.25,0.0
1772498289.9474905,222131.015625,227294.90625,249838.421875,678792.625,628224.75,227669.34375,706022.0625,206477.734375,0.0
1772498289.9505868,222139.96875,227268.796875,249813.203125,678748.375,628163.6875,227643.59375,706021.4375,206456.71875,0.0
1772498289.9506018,222137.28125,227257.4375,249798.09375,678705.3125,628126.0,227627.671875,706020.8125,206441.609375,0.0
1772498289.9525487,222127.71875,227265.578125,249809.640625,678686.4375,628079.3125,227632.234375,706018.3125,206456.90625,0.0
1772498289.9550035,222114.484375,227275.40625,249821.25,678654.3125,628008.25,227644.84375,706023.3125,206476.03125,0.0
1772498289.9575472,222129.234375,227277.5625,249817.953125,678619.625,627934.375,227647.4375,706023.75,206471.921875,0.0
1772498289.963893,222126.28125,227259.046875,249797.296875,678579.6875,627861.0625,227628.484375,706016.0625,206447.0625,0.0
1772498289.9680908,222122.796875,227265.9375,249800.6875,678561.875,627824.875,227636.34375,706020.625,206454.40625,0.0
1772498289.9681084,222111.890625,227280.234375,249816.78125,678528.1875,627751.25,227656.8125,706021.8125,206477.015625,0.0
1772498289.9762623,222122.703125,227280.953125,249811.15625,678491.0625,627672.0625,227660.390625,706019.9375,206468.53125,0.0
1772498289.9906228,222149.171875,227274.34375,249802.921875,678479.75,627645.3125,227651.71875,706022.1875,206453.5,0.0
1772498289.9906516,222144.875,227260.203125,249789.078125,678452.625,627622.8125,227635.1875,706023.3125,206437.140625,0.0
1772498289.9930692,222134.234375,227275.859375,249796.84375,678410.1875,627573.25,227643.5,706021.5625,206450.640625,0.0
1772498289.9930809,222145.0625,227279.609375,249804.09375,678380.9375,627516.875,227648.765625,706024.4375,206462.71875,0.0
1772498289.999325,222190.484375,227287.921875,249814.8125,678387.375,627505.0625,227655.125,706026.0,206467.984375,0.0
1772498289.9993377,222200.21875,227292.75,249813.65625,678373.0625,627512.9375,227667.90625,706031.625,206468.890625,0.0
1772498290.005026,222165.625,227278.0,249798.90625,678314.5625,627463.5625,227652.171875,706028.3125,206457.984375,0.0
1772498290.011852,222158.109375,227273.53125,249796.40625,678275.0,627413.3125,227642.875,706030.75,206453.78125,0.0
1772498290.0118787,222193.0625,227276.84375,249801.046875,678266.25,627393.1875,227643.671875,706032.25,206456.90625,0.0
1772498290.0143216,222204.328125,227280.421875,249806.140625,678260.5625,627378.375,227649.9375,706036.125,206464.765625,0.0
1772498290.0143442,222183.40625,227276.03125,249793.546875,678219.375,627340.875,227649.125,706032.875,206465.3125,0.0
1772498290.0300639,222165.71875,227278.71875,249790.859375,678165.1875,627282.4375,227648.953125,706029.0625,206465.75,0.0
1772498290.039956,222218.46875,227295.890625,249815.0,678183.625,627281.875,227659.328125,706033.4375,206477.015625,0.0
1772498290.0399847,222215.78125,227282.65625,249795.6875,678159.5625,627274.0,227645.640625,706031.125,206464.0625,0.0
1772498290.0399933,222212.109375,227278.984375,249790.046875,678135.6875,627275.625,227641.890625,706030.75,206456.28125,0.0
1772498290.043077,222215.59375,227290.078125,249802.390625,678109.875,627273.5,227657.796875,706038.0625,206467.1875,0.0
1772498290.043091,222238.578125,227282.921875,249793.453125,678086.9375,627267.6875,227651.28125,706036.5625,206459.40625,0.0
1772498290.0449684,222260.390625,227286.5,249793.359375,678080.1875,627292.375,227656.28125,706035.5625,206459.671875,0.0
1772498290.053832,222261.640625,227290.78125,249796.140625,678067.75,627315.625,227662.359375,706036.5625,206467.359375,0.0
1772498290.0568357,222252.796875,227295.25,249798.546875,678030.0,627308.625,227662.09375,706038.5625,206471.296875,0.0
1772498290.0568569,222272.90625,227283.453125,249783.265625,678007.375,627323.8125,227645.203125,706041.0625,206454.671875,0.0
1772498290.0587432,222319.671875,227294.09375,249792.015625,678025.0,627388.3125,227660.3125,706045.5,206467.71875,0.0
1772498290.0675595,222336.65625,227293.46875,249791.125,678034.5625,627465.4375,227667.8125,706049.4375,206470.046875,0.0
1772498290.0743315,222311.71875,227278.625,249777.359375,677986.8125,627488.25,227653.59375,706045.875,206460.21875,0.0
1772498290.0743527,222317.96875,227267.984375,249762.25,677944.625,627514.375,227641.0,706041.75,206449.296875,0.0
1772498290.0881107,222358.46875,227267.453125,249761.359375,677945.5,627596.4375,227643.671875,706045.125,206445.109375,0.0
1772498290.08814,222373.578125,227265.75,249765.5625,677952.125,627689.9375,227647.609375,706050.3125,206444.484375,0.0
1772498290.0899944,222376.625,227272.8125,249779.0625,677940.0625,627754.9375,227651.359375,706052.6875,206457.34375,0.0
1772498290.0962913,222371.703125,227261.1875,249762.78125,677891.3125,627781.25,227635.890625,706050.9375,206440.09375,0.0
1772498290.0987685,222407.203125,227255.65625,249748.5625,677875.3125,627865.875,227635.625,706053.5625,206434.46875,0.0
1772498290.101259,222424.8125,227264.6875,249753.3125,677866.9375,627961.625,227646.453125,706056.5,206442.78125,0.0
1772498290.1037555,222416.5,227271.203125,249759.484375,677844.9375,628029.5,227650.375,706055.8125,206451.265625,0.0
1772498290.1075544,222385.203125,227248.046875,249736.046875,677779.125,628046.6875,227628.296875,706051.125,206433.75,0.0
1772498290.1143405,222421.328125,227245.1875,249734.078125,677771.1875,628123.5625,227620.078125,706053.625,206434.1875,0.0
1772498290.1143584,222438.40625,227249.921875,249742.9375,677768.9375,628221.375,227619.890625,706061.3125,206435.625,0.0
1772498290.123088,222425.703125,227248.234375,249746.15625,677740.3125,628285.9375,227620.703125,706061.625,206441.890625,0.0
1772498290.1231072,222397.90625,227240.984375,249736.40625,677662.875,628299.25,227621.59375,706055.8125,206437.59375,0.0
1772498290.1249952,222428.03125,227249.296875,249741.953125,677645.75,628358.375,227633.9375,706056.875,206446.09375,0.0
1772498290.1337805,222442.25,227248.9375,249747.5,677638.9375,628435.4375,227632.6875,706061.5,206447.515625,0.0
1772498290.1368473,222441.078125,227252.515625,249755.1875,677620.4375,628503.4375,227637.78125,706065.4375,206454.125,0.0
1772498290.1368668,222386.375,227225.078125,249723.71875,677529.875,628501.375,227611.484375,706059.8125,206425.609375,0.0
1772498290.138759,222421.59375,227239.375,249738.203125,677514.25,628551.9375,227622.21875,706063.8125,206432.9375,0.0
1772498290.1523604,222437.953125,227239.5625,249735.15625,677499.5625,628616.75,227625.96875,706064.375,206427.046875,0.0
1772498290.1606529,222448.59375,227248.765625,249744.453125,677493.8125,628705.8125,227636.25,706070.4375,206441.265625,0.0
1772498290.1606815,222432.046875,227258.515625,249750.0,677447.4375,628747.25,227650.203125,706073.5625,206461.203125,0.0
1772498290.1850944,222435.984375,227256.640625,249746.875,677410.0625,628773.1875,227647.96875,706072.0,206452.34375,0.0
1772498290.1875587,222434.828125,227248.234375,249738.640625,677371.0,628805.625,227627.9375,706067.75,206435.890625,0.0
1772498290.190014,222427.140625,227255.921875,249744.015625,677340.25,628854.125,227632.765625,706069.125,206441.53125,0.0
1772498290.192568,222383.953125,227238.84375,249730.515625,677266.5,628851.6875,227618.46875,706065.375,206428.109375,0.0
1772498290.1950035,222379.578125,227236.421875,249731.046875,677220.3125,628843.3125,227617.125,706061.5,206429.015625,0.0
1772498290.1975396,222394.953125,227235.171875,249726.484375,677204.0625,628870.625,227616.5,706059.375,206433.125,0.0
1772498290.199994,222386.1875,227227.390625,249718.53125,677172.75,628903.125,227617.84375,706058.0,206428.109375,0.0
1772498290.2025485,222359.359375,227219.53125,249712.890625,677120.125,628909.625,227609.25,706058.625,206415.953125,0.0
1772498290.2075608,222349.890625,227223.203125,249715.40625,677067.75,628889.0625,227607.46875,706057.75,206421.5,0.0
1772498290.210005,222366.25,227220.6875,249707.796875,677044.75,628910.8125,227603.4375,706057.5,206419.078125,0.0
1772498290.2125552,222370.09375,227232.3125,249712.625,677018.75,628950.0625,227612.203125,706061.125,206421.859375,0.0
1772498290.2150147,222351.59375,227242.6875,249718.625,676975.0,628955.6875,227624.640625,706062.125,206428.65625,0.0
1772498290.2181082,222331.828125,227247.609375,249716.65625,676911.5,628914.4375,227626.515625,706059.375,206429.453125,0.0
1772498290.2181263,222358.734375,227257.171875,249719.0625,676889.5625,628918.0625,227632.046875,706065.1875,206432.9375,0.0
1772498290.220024,222357.9375,227260.203125,249720.3125,676863.6875,628924.3125,227637.953125,706069.0,206435.171875,0.0
1772498290.2225575,222327.0,227257.34375,249718.0,676815.125,628896.375,227640.1875,706066.0625,206433.484375,0.0
1772498290.2268412,222303.75,227260.390625,249720.3125,676749.3125,628839.6875,227642.6875,706066.0,206438.84375,0.0
1772498290.2268574,222330.84375,227257.625,249724.25,676727.0,628814.75,227640.71875,706066.6875,206439.375,0.0
1772498290.2330973,222318.859375,227235.796875,249705.5625,676685.25,628790.5625,227622.578125,706062.0625,206415.59375,0.0
1772498290.2331164,222291.59375,227225.4375,249693.3125,676638.375,628768.25,227617.125,706059.75,206414.890625,0.0
1772498290.2413528,222278.359375,227232.9375,249701.1875,676592.25,628727.0625,227624.0,706060.5,206424.8125,0.0
1772498290.2480931,222300.890625,227232.21875,249701.546875,676569.75,628714.875,227631.15625,706064.1875,206429.8125,0.0
1772498290.2481174,222314.578125,227227.046875,249703.421875,676548.0625,628719.3125,227630.796875,706064.0,206430.796875,0.0
1772498290.2543368,222308.859375,227222.5625,249703.78125,676529.0625,628721.0,227634.109375,706063.8125,206435.984375,0.0
1772498290.2543547,222273.171875,227217.65625,249691.4375,676457.9375,628670.9375,227621.421875,706061.25,206429.015625,0.0
1772498290.2682023,222296.25,227236.703125,249705.125,676434.625,628646.625,227630.0,706064.5625,206439.828125,0.0
1772498290.26825,222323.6875,227243.578125,249708.15625,676434.1875,628657.6875,227638.765625,706068.9375,206443.765625,0.0
1772498290.270598,222309.125,227234.734375,249699.578125,676406.1875,628648.9375,227624.90625,706067.5625,206430.796875,0.0
1772498290.270615,222268.34375,227234.90625,249694.75,676342.0,628592.0,227618.90625,706064.9375,206424.984375,0.0
1772498290.2737613,222271.390625,227249.921875,249703.0625,676295.125,628537.3125,227632.234375,706064.125,206432.9375,0.0
1772498290.2881012,222293.109375,227251.8125,249705.46875,676278.875,628521.5,227636.34375,706065.625,206431.875,0.0
1772498290.2881265,222281.9375,227250.109375,249701.625,676247.4375,628505.125,227642.609375,706066.8125,206434.734375,0.0
1772498290.2905955,222267.453125,227258.78125,249710.484375,676209.0625,628467.25,227654.671875,706068.1875,206442.6875,0.0
1772498290.2906127,222265.125,227261.8125,249713.34375,676166.4375,628410.0,227657.984375,706069.375,206448.234375,0.0
1772498290.29935,222291.59375,227268.96875,249718.171875,676150.375,628385.4375,227662.453125,706073.6875,206453.953125,0.0
1772498290.2993736,222286.234375,227272.1875,249726.84375,676124.1875,628347.875,227663.875,706071.625,206460.21875,0.0
1772498290.3080986,222271.390625,227277.375,249732.125,676082.25,628302.75,227666.296875,706072.3125,206466.921875,0.0
1772498290.3081207,222255.296875,227278.890625,249725.859375,676020.0625,628231.1875,227665.140625,706072.75,206473.71875,0.0
1772498290.3143516,222271.921875,227270.40625,249712.53125,675988.875,628182.5625,227653.0625,706070.875,206462.984375,0.0
1772498290.3143744,222269.875,227269.328125,249712.0,675964.6875,628154.5625,227656.1875,706073.9375,206467.09375,0.0
1772498290.3256156,222255.5625,227277.5625,249720.859375,675923.9375,628107.125,227661.640625,706077.6875,206475.859375,0.0
1772498290.3256385,222225.171875,227280.234375,249719.15625,675850.25,628014.5625,227659.140625,706077.25,206479.609375,0.0
1772498290.349291,222258.96875,227296.0625,249732.03125,675833.75,627968.0,227669.515625,706078.9375,206488.28125,0.0
1772498290.3493204,222262.09375,227293.015625,249729.34375,675812.0625,627926.625,227666.296875,706080.75,206485.6875,0.0
1772498290.3493295,222240.1875,227289.0,249725.953125,675769.5,627866.1875,227668.890625,706080.0,206482.828125,0.0
1772498290.349336,222202.640625,227287.296875,249727.203125,675692.3125,627755.125,227671.03125,706077.6875,206487.65625,0.0
1772498290.3518214,222218.015625,227288.46875,249734.078125,675658.875,627666.8125,227670.046875,706074.9375,206489.265625,0.0
1772498290.3518288,222213.28125,227276.296875,249722.015625,675627.9375,627599.8125,227654.5,706070.4375,206476.75,0.0
1772498290.353754,222204.78125,227284.890625,249727.5625,675603.9375,627551.125,227664.953125,706073.375,206483.8125,0.0
1772498290.3562572,222179.296875,227292.484375,249730.859375,675537.0625,627456.5,227679.625,706076.6875,206489.0,0.0
1772498290.3587554,222183.765625,227295.703125,249728.8125,675487.0,627356.625,227677.828125,706077.0,206487.75,0.0
1772498290.3624296,222185.734375,227290.4375,249720.671875,675452.9375,627275.4375,227658.609375,706076.25,206471.828125,0.0
1772498290.3693707,222174.203125,227291.59375,249719.15625,675421.8125,627202.4375,227656.1875,706078.125,206471.828125,0.0
1772498290.3694012,222148.453125,227302.140625,249723.890625,675364.5,627100.1875,227667.640625,706080.1875,206479.96875,0.0
1772498290.3712556,222138.984375,227304.828125,249726.046875,675308.9375,626978.5625,227673.359375,706080.3125,206480.5,0.0
1772498290.3850696,222153.1875,227306.171875,249725.234375,675282.375,626887.9375,227676.578125,706079.375,206480.78125,0.0
1772498290.3881073,222135.046875,227302.328125,249721.296875,675242.5,626791.125,227678.71875,706075.875,206482.65625,0.0
1772498290.3881314,222099.1875,227298.390625,249716.921875,675171.9375,626664.1875,227672.015625,706075.4375,206481.3125,0.0
1772498290.3899992,222082.65625,227291.0625,249710.65625,675106.6875,626512.625,227661.921875,706075.0,206477.46875,0.0
1772498290.4012687,222092.390625,227287.5625,249704.765625,675076.4375,626399.625,227657.796875,706075.125,206475.6875,0.0
1772498290.4043524,222076.578125,227288.546875,249705.296875,675041.3125,626280.625,227661.828125,706074.1875,206483.28125,0.0
1772498290.404374,222043.484375,227288.015625,249704.484375,674986.875,626137.5,227661.734375,706073.6875,206488.734375,0.0
1772498290.4062629,222010.328125,227283.015625,249696.359375,674907.625,625954.375,227665.84375,706071.0,206486.046875,0.0
1772498290.408795,222032.140625,227290.78125,249698.328125,674875.75,625813.3125,227680.328125,706071.375,206482.75,0.0
1772498290.4126327,222015.5,227278.71875,249686.078125,674830.875,625676.0625,227668.171875,706071.375,206468.796875,0.0
1772498290.4213576,221986.1875,227272.90625,249685.453125,674779.625,625523.3125,227663.53125,706070.4375,206473.71875,0.0
1772498290.4256165,221948.625,227272.375,249682.40625,674701.8125,625318.9375,227670.046875,706068.3125,206473.171875,0.0
1772498290.4256356,221961.234375,227274.875,249682.9375,674664.9375,625139.625,227671.84375,706066.9375,206475.953125,0.0
1772498290.4343503,221960.25,227281.40625,249685.09375,674638.1875,624983.5625,227682.21875,706064.1875,206482.65625,0.0
1772498290.4343681,221945.6875,227293.375,249694.390625,674604.8125,624824.375,227693.390625,706067.9375,206491.5,0.0
1772498290.4362545,221908.9375,227298.75,249698.328125,674536.25,624604.0,227694.109375,706067.125,206497.046875,0.0
1772498290.44507,221910.984375,227293.109375,249692.59375,674491.25,624388.875,227687.3125,706064.375,206495.078125,0.0
1772498290.44809,221910.359375,227288.734375,249688.40625,674459.25,624195.5,227682.484375,706060.875,206490.875,0.0
1772498290.4481072,221885.6875,227287.484375,249687.421875,674418.125,623996.75,227681.140625,706059.1875,206490.515625,0.0
1772498290.4640143,221850.640625,227290.078125,249691.625,674349.125,623754.0,227679.703125,706057.125,206490.609375,0.0
1772498290.4687817,221863.25,227301.6875,249706.453125,674313.1875,623526.375,227695.890625,706059.375,206500.71875,0.0
1772498290.4713337,221869.0625,227297.671875,249704.671875,674284.5,623318.9375,227696.25,706059.5625,206498.65625,0.0
1772498290.473753,221859.671875,227302.046875,249711.203125,674255.0625,623120.5,227691.859375,706058.1875,206498.484375,0.0
1772498290.4762516,221829.8125,227308.125,249717.015625,674199.125,622882.25,227693.125,706057.9375,206505.265625,0.0
1772498290.4812827,221829.546875,227316.0,249724.25,674158.4375,622642.0,227698.65625,706057.5,206516.09375,0.0
1772498290.4837475,221849.484375,227312.6875,249719.421875,674137.25,622445.125,227694.375,706055.875,206505.1875,0.0
1772498290.4862444,221842.234375,227312.328125,249718.703125,674110.6875,622256.0625,227698.65625,706056.875,206502.5,0.0
1772498290.4887607,221814.34375,227308.578125,249716.734375,674057.5,622038.0,227695.796875,706056.25,206506.53125,0.0
1772498290.493184,221809.0625,227306.4375,249715.671875,674004.1875,621802.9375,227691.0625,706054.625,206497.859375,0.0
1772498290.4932253,221839.734375,227310.90625,249714.6875,673994.375,621616.4375,227697.046875,706056.4375,206506.4375,0.0
1772498290.4962556,221840.71875,227318.5,249719.421875,673978.4375,621441.0,227708.046875,706058.0,206515.015625,0.0
1772498290.5106373,221818.984375,227316.984375,249713.34375,673936.0625,621244.6875,227706.34375,706054.625,206506.703125,0.0
1772498290.5106657,221810.140625,227318.0625,249710.03125,673891.875,621037.0,227701.078125,706053.75,206504.640625,0.0
1772498290.5168588,221844.375,227317.515625,249706.09375,673884.375,620879.125,227690.34375,706057.3125,206500.171875,0.0
1772498290.5168853,221856.359375,227319.578125,249707.078125,673871.5,620735.3125,227695.171875,706057.125,206505.09375,0.0
1772498290.518761,221848.40625,227322.4375,249709.59375,673843.6875,620580.6875,227696.25,706056.75,206502.6875,0.0
1772498290.5212834,221837.765625,227329.59375,249713.515625,673796.875,620387.8125,227696.6875,706057.125,206494.359375,0.0
1772498290.5250125,221877.546875,227342.203125,249723.453125,673799.625,620236.625,227701.4375,706058.75,206508.3125,0.0
1772498290.5337932,221891.40625,227338.53125,249721.65625,673792.375,620097.25,227702.953125,706061.4375,206516.359375,0.0
1772498290.536853,221886.3125,227338.171875,249719.875,673765.3125,619949.0,227706.0,706062.5,206521.015625,0.0
1772498290.536868,221862.0,227334.421875,249716.109375,673703.0,619743.625,227706.984375,706059.5625,206524.578125,0.0
1772498290.538768,221882.203125,227332.546875,249711.5625,673676.125,619560.6875,227707.0625,706059.375,206521.359375,0.0
1772498290.5526285,221902.40625,227329.140625,249704.484375,673672.375,619419.0625,227709.921875,706061.625,206517.515625,0.0
1772498290.5561764,221893.375,227328.78125,249703.0625,673659.0,619279.625,227717.265625,706062.0625,206527.796875,0.0
1772498290.5561953,221879.4375,227343.0,249718.171875,673624.375,619108.0625,227733.4375,706063.375,206543.71875,0.0
1772498290.556203,221906.609375,227352.65625,249730.234375,673605.5,618943.4375,227742.65625,706065.5625,206543.0,0.0
1772498290.5587757,221918.953125,227338.53125,249717.359375,673591.3125,618801.625,227729.0625,706061.75,206530.484375,0.0
1772498290.5623758,221911.796875,227339.25,249714.421875,673573.6875,618668.9375,227727.984375,706064.9375,206536.828125,0.0
1772498290.5700672,221898.203125,227352.390625,249720.234375,673536.4375,618516.3125,227738.359375,706070.75,206549.890625,0.0
1772498290.573768,221901.421875,227352.03125,249714.0625,673497.3125,618348.375,227736.484375,706070.25,206537.734375,0.0
1772498290.5806055,221934.234375,227353.546875,249716.296875,673495.3125,618230.6875,227735.765625,706069.625,206531.109375,0.0
1772498290.5806267,221935.84375,227346.75,249712.0,673475.625,618111.3125,227728.609375,706070.75,206523.953125,0.0
1772498290.5862584,221908.84375,227344.34375,249707.359375,673419.125,617954.5,227724.59375,706070.375,206521.28125,0.0
1772498290.5900033,221903.390625,227341.84375,249706.1875,673372.25,617780.625,227724.328125,706070.125,206525.921875,0.0
1772498290.5937653,221941.125,227348.8125,249712.625,673373.6875,617659.9375,227734.421875,706071.6875,206534.59375,0.0
1772498290.6006093,221943.890625,227342.828125,249710.21875,673357.625,617538.25,227724.046875,706070.8125,206527.796875,0.0
1772498290.6006324,221932.359375,227341.921875,249711.109375,673323.0,617405.625,227719.140625,706072.4375,206522.890625,0.0
1772498290.6062572,221917.15625,227347.921875,249714.0625,673269.5625,617230.375,227726.109375,706072.6875,206526.640625,0.0
1772498290.6156168,221935.75,227343.71875,249712.1875,673248.25,617080.1875,227731.65625,706071.375,206531.015625,0.0
1772498290.6156418,221936.828125,227344.703125,249709.5,673228.6875,616946.6875,227734.78125,706072.75,206534.6875,0.0
1772498290.617571,221932.265625,227354.0,249715.9375,673206.75,616810.125,227743.1875,706075.875,206539.34375,0.0
1772498290.6295085,221925.03125,227359.71875,249722.109375,673167.625,616651.9375,227744.703125,706081.25,206551.671875,0.0
1772498290.6295576,221951.671875,227353.109375,249716.296875,673150.8125,616519.625,227741.484375,706081.4375,206537.28125,0.0
1772498290.6381073,221959.1875,227349.265625,249717.1875,673142.3125,616407.0625,227743.1875,706080.375,206535.9375,0.0
1772498290.6381323,221954.890625,227354.625,249719.328125,673118.625,616286.25,227746.140625,706081.625,206541.84375,0.0
1772498290.6468697,221939.953125,227364.453125,249724.78125,673070.25,616122.375,227746.859375,706083.0625,206543.265625,0.0
1772498290.6469002,221963.203125,227372.0625,249729.703125,673053.6875,615983.8125,227761.609375,706083.5,206555.4375,0.0
1772498290.649332,221980.640625,227365.890625,249729.25,673042.8125,615864.625,227762.3125,706085.625,206560.171875,0.0
1772498290.6493464,221973.9375,227363.125,249728.625,673021.25,615735.875,227756.6875,706085.75,206560.171875,0.0
1772498290.6512659,221944.703125,227361.15625,249726.578125,672971.8125,615570.0,227754.625,706083.6875,206561.6875,0.0
1772498290.6650918,221966.15625,227369.734375,249729.890625,672951.875,615435.125,227759.546875,706086.625,206567.765625,0.0
1772498290.672581,221993.875,227370.625,249727.375,672951.25,615339.5,227760.796875,706088.875,206564.375,0.0
1772498290.6726167,221999.6875,227370.265625,249726.390625,672943.8125,615254.6875,227765.0,706090.1875,206561.78125,0.0
1772498290.6726243,221986.265625,227370.265625,249726.484375,672907.375,615138.75,227768.125,706089.5,206559.90625,0.0
1772498290.6781068,222005.9375,227373.9375,249731.9375,672887.75,615026.25,227770.1875,706088.9375,206560.890625,0.0
1772498290.678126,222050.5625,227382.15625,249740.34375,672903.875,614960.5625,227781.09375,706091.75,206574.5625,0.0
1772498290.6800148,222058.78125,227381.890625,249731.671875,672895.5625,614900.0,227784.21875,706095.5625,206577.515625,0.0
1772498290.6887984,222043.84375,227380.90625,249723.796875,672855.75,614812.75,227781.625,706095.5,206571.796875,0.0
1772498290.6981351,222054.125,227390.03125,249728.546875,672829.0,614717.5,227789.671875,706095.8125,206574.828125,0.0
1772498290.6981668,222096.875,227393.78125,249728.453125,672835.75,614671.9375,227789.140625,706098.375,206571.609375,0.0
1772498290.7006006,222127.984375,227409.515625,249741.0625,672847.8125,614651.625,227801.484375,706104.4375,206584.578125,0.0
1772498290.7006097,222121.0,227408.09375,249733.28125,672823.6875,614608.0,227794.59375,706105.3125,206573.40625,0.0
1772498290.711265,222112.78125,227403.890625,249725.859375,672783.1875,614534.9375,227782.609375,706105.875,206564.640625,0.0
1772498290.715628,222156.140625,227405.671875,249723.984375,672789.0625,614510.375,227789.140625,706106.0625,206565.890625,0.0
1772498290.7156465,222184.21875,227405.5,249724.15625,672796.125,614515.75,227781.8125,706109.1875,206565.265625,0.0
1772498290.7218828,222193.15625,227398.515625,249719.421875,672784.0625,614521.8125,227764.734375,706113.4375,206557.125,0.0
1772498290.7219193,222195.9375,227406.75,249724.609375,672751.875,614496.9375,227778.140625,706116.0625,206559.71875,0.0
1772498290.7356548,222246.453125,227417.828125,249731.40625,672760.375,614508.25,227785.921875,706119.875,206561.515625,0.0
1772498290.735684,222267.8125,227414.078125,249728.546875,672763.875,614519.75,227783.234375,706118.4375,206564.1875,0.0
1772498290.7377806,222277.921875,227426.6875,249738.640625,672762.9375,614537.375,227791.203125,706121.9375,206580.28125,0.0
1772498290.740042,222267.453125,227434.28125,249745.34375,672725.5,614509.9375,227792.546875,706120.5,206592.53125,0.0
1772498290.7425823,222305.90625,227431.96875,249741.328125,672721.3125,614512.8125,227784.21875,706123.3125,206578.765625,0.0
1772498290.7462876,222341.84375,227431.609375,249741.0625,672733.0625,614557.3125,227782.609375,706129.9375,206579.921875,0.0
1772498290.75816,222339.78125,227425.4375,249739.1875,672722.1875,614582.625,227783.59375,706131.0625,206587.890625,0.0
1772498290.7581904,222317.078125,227420.0625,249737.21875,672678.3125,614557.0625,227784.140625,706129.9375,206588.25,0.0
1772498290.7606084,222342.734375,227428.03125,249747.046875,672664.0625,614544.625,227795.125,706131.6875,206593.703125,0.0
1772498290.760626,222379.75,227428.46875,249749.828125,672669.375,614570.125,227796.390625,706134.3125,206597.90625,0.0
1772498290.7625544,222381.1875,227422.21875,249743.109375,672656.5,614588.4375,227795.21875,706135.625,206595.390625,0.0
1772498290.7814124,222359.015625,227422.84375,249741.234375,672617.0625,614565.4375,227797.640625,706135.5625,206597.453125,0.0
1772498290.7843525,222362.3125,227421.953125,249739.8125,672591.75,614535.6875,227796.734375,706137.125,206599.421875,0.0
1772498290.7843776,222394.765625,227421.671875,249735.6875,672595.125,614550.0,227798.53125,706140.8125,206601.03125,0.0
1772498290.7862735,222393.96875,227416.578125,249728.359375,672581.375,614563.8125,227797.546875,706139.8125,206596.375,0.0
1772498290.7887468,222378.671875,227421.5,249734.359375,672554.4375,614553.9375,227808.8125,706139.75,206612.390625,0.0
1772498290.7912507,222371.078125,227416.40625,249727.921875,672513.625,614517.5,227796.109375,706138.9375,206604.25,0.0
1772498290.793844,222393.609375,227405.859375,249718.265625,672502.0,614517.375,227776.890625,706140.4375,206586.8125,0.0
1772498290.7975595,222391.546875,227408.09375,249722.546875,672489.875,614526.1875,227792.71875,706142.5,206595.3125,0.0
1772498290.8269048,222363.5625,227404.328125,249718.078125,672445.0,614502.3125,227793.515625,706141.0625,206591.28125,0.0
1772498290.826929,222340.328125,227409.609375,249717.640625,672391.125,614442.6875,227793.609375,706138.25,206594.046875,0.0
1772498290.828756,222364.546875,227404.15625,249707.703125,672374.375,614422.75,227773.765625,706137.5,206586.984375,0.0
1772498290.8312898,222379.578125,227407.203125,249708.34375,672363.5625,614432.75,227775.109375,706141.5,206586.28125,0.0
1772498290.8337739,222365.265625,227406.484375,249706.015625,672329.6875,614422.9375,227772.515625,706141.25,206580.28125,0.0
1772498290.8362536,222336.75,227409.078125,249711.90625,672270.4375,614355.0,227776.0,706140.0,206588.78125,0.0
1772498290.838747,222348.453125,227403.53125,249712.890625,672243.25,614302.75,227778.234375,706138.875,206587.53125,0.0
1772498290.8412569,222346.765625,227402.09375,249711.640625,672220.8125,614269.125,227778.5,706138.3125,206588.0625,0.0
1772498290.843768,222325.921875,227401.109375,249705.5625,672183.6875,614230.8125,227781.28125,706138.3125,206587.171875,0.0
1772498290.8462944,222299.546875,227410.859375,249710.125,672129.125,614161.0625,227787.078125,706142.0625,206595.484375,0.0
1772498290.8493438,222310.28125,227414.703125,249711.828125,672102.5,614095.8125,227792.8125,706144.5625,206595.21875,0.0
1772498290.8493595,222309.03125,227403.171875,249700.109375,672078.375,614040.4375,227793.515625,706143.125,206588.59375,0.0
1772498290.8537805,222291.0625,227394.859375,249691.796875,672046.6875,613987.0625,227787.4375,706142.6875,206580.015625,0.0
1772498290.8568494,222263.796875,227391.109375,249689.828125,671995.125,613905.0625,227773.859375,706142.9375,206574.75,0.0
1772498290.8568633,222289.8125,227413.0,249708.421875,671982.0,613845.1875,227784.140625,706149.375,206588.875,0.0
1772498290.8587484,222305.09375,227421.953125,249713.34375,671967.5625,613792.1875,227791.46875,706151.625,206597.546875,0.0
1772498290.8675685,222276.21875,227415.953125,249708.78125,671927.6875,613712.5625,227786.640625,706150.375,206597.71875,0.0
1772498290.871852,222247.34375,227424.8125,249716.296875,671876.125,613612.5625,227791.828125,706152.0625,206606.03125,0.0
1772498290.8718665,222247.34375,227433.125,249720.671875,671836.3125,613506.3125,227801.921875,706151.625,206610.78125,0.0
1772498290.8800159,222267.640625,227433.921875,249720.5,671822.5625,613434.625,227806.84375,706153.0,206607.90625,0.0
1772498290.8852613,222243.234375,227417.65625,249707.703125,671789.3125,613350.25,227789.59375,706150.5,206605.765625,0.0
1772498290.8852773,222211.9375,227414.34375,249708.609375,671745.6875,613241.0625,227779.75,706145.4375,206616.234375,0.0
1772498290.8900125,222192.359375,227407.640625,249703.234375,671693.4375,613109.375,227771.171875,706141.625,206602.90625,0.0
1772498290.8925583,222212.828125,227408.359375,249700.921875,671677.4375,613024.25,227773.234375,706141.375,206601.03125,0.0
1772498290.9012783,222210.140625,227412.296875,249702.25,671666.8125,612952.0,227778.5,706143.4375,206608.0,0.0
1772498290.9056244,222185.375,227401.390625,249695.1875,671629.1875,612860.8125,227762.953125,706142.3125,206605.3125,0.0
1772498290.9056444,222157.21875,227391.28125,249690.359375,671572.125,612735.0,227748.734375,706141.1875,206591.90625,0.0
1772498290.9137988,222186.09375,227396.46875,249693.765625,671566.3125,612657.25,227759.1875,706144.75,206591.90625,0.0
1772498290.9168503,222193.703125,227407.375,249701.984375,671559.0,612589.4375,227774.484375,706146.5625,206603.984375,0.0
1772498290.9168644,222169.5625,227404.515625,249697.078125,671525.5,612501.0625,227772.6875,706143.5625,206601.296875,0.0
1772498290.9300473,222143.8125,227408.359375,249701.265625,671471.125,612373.8125,227778.6875,706144.6875,206603.53125,0.0
1772498290.9331024,222160.34375,227406.84375,249701.546875,671446.0625,612259.75,227773.3125,706144.375,206602.453125,0.0
1772498290.9331172,222164.640625,227411.21875,249699.03125,671432.375,612169.875,227782.703125,706145.3125,206606.390625,0.0
1772498290.935,222153.8125,227411.046875,249695.28125,671412.375,612084.5625,227780.5625,706148.25,206608.265625,0.0
1772498290.9388032,222123.59375,227397.453125,249685.890625,671353.125,611948.0625,227765.890625,706145.1875,206590.75,0.0
1772498290.942577,222135.3125,227398.703125,249684.546875,671327.1875,611826.375,227769.46875,706142.0625,206583.421875,0.0
1772498290.951278,222147.203125,227400.671875,249681.96875,671318.375,611739.625,227784.21875,706142.4375,206586.984375,0.0
1772498290.9543405,222137.1875,227402.90625,249682.9375,671305.0625,611657.75,227796.46875,706145.9375,206590.296875,0.0
1772498290.9543555,222105.1875,227401.390625,249685.8125,671257.3125,611528.3125,227793.875,706145.1875,206586.09375,0.0
1772498290.962621,222102.859375,227398.96875,249684.90625,671225.125,611390.0625,227791.28125,706144.75,206590.296875,0.0
1772498290.9668732,222122.4375,227405.046875,249685.359375,671223.75,611292.0,227808.453125,706144.5,206607.375,0.0
1772498290.9668977,222114.921875,227413.1875,249690.453125,671211.9375,611192.1875,227810.515625,706146.375,206619.53125,0.0
1772498290.975649,222084.34375,227405.859375,249685.984375,671166.0625,611050.5625,227798.796875,706145.3125,206602.015625,0.0
1772498290.9756765,222070.765625,227391.734375,249675.96875,671119.9375,610885.375,227783.15625,706142.4375,206592.984375,0.0
1772498290.9781256,222090.78125,227391.640625,249673.921875,671115.0,610766.1875,227783.15625,706141.25,206600.40625,0.0
1772498290.9781463,222088.828125,227396.734375,249677.578125,671106.9375,610658.6875,227787.0,706142.8125,206608.625,0.0
1772498290.9886613,222070.3125,227405.3125,249683.921875,671079.0625,610533.125,227796.828125,706143.3125,206618.28125,0.0
1772498290.9993827,222064.859375,227414.890625,249688.9375,671047.3125,610386.3125,227806.125,706145.375,206622.03125,0.0
1772498290.9994154,222095.265625,227417.03125,249690.09375,671047.5,610278.1875,227814.625,706145.0,206615.328125,0.0
1772498291.0018368,222100.890625,227413.453125,249686.796875,671044.375,610184.25,227807.296875,706145.4375,206619.359375,0.0
1772498291.0018451,222087.125,227414.4375,249681.78125,671022.3125,610080.0625,227806.390625,706147.625,206618.546875,0.0
1772498291.005097,222071.5625,227410.6875,249674.625,670978.375,609940.6875,227808.0,706147.3125,206613.640625,0.0
1772498291.0194297,222091.953125,227396.90625,249660.765625,670967.3125,609832.875,227786.453125,706146.1875,206600.9375,0.0
1772498291.0194628,222099.375,227396.28125,249657.109375,670963.0,609753.1875,227787.0,706147.3125,206596.46875,0.0
1772498291.0224512,222101.875,227408.890625,249662.03125,670958.875,609684.0,227797.546875,706151.0,206601.921875,0.0
1772498291.0224717,222093.921875,227408.71875,249662.828125,670930.5625,609579.6875,227801.296875,706149.5625,206607.203125,0.0
1772498291.022478,222129.234375,227412.109375,249663.359375,670932.25,609508.25,227808.625,706153.0625,206612.03125,0.0
1772498291.0262544,222151.5,227409.34375,249658.984375,670934.3125,609458.1875,227800.046875,706154.9375,206604.15625,0.0
1772498291.0601487,222146.3125,227401.921875,249652.1875,670919.125,609404.3125,227781.625,706155.6875,206591.1875,0.0
1772498291.060191,222136.390625,227406.921875,249662.828125,670888.25,609320.0,227788.0625,706158.3125,206605.5,0.0
1772498291.0602007,222174.921875,227412.734375,249666.671875,670886.8125,609262.625,227790.75,706162.5625,206611.578125,0.0
1772498291.0625803,222206.484375,227413.0,249663.546875,670895.0625,609238.5625,227794.15625,706168.1875,206614.890625,0.0
1772498291.066222,222196.734375,227402.1875,249652.90625,670877.1875,609200.25,227790.75,706163.4375,206613.8125,0.0
1772498291.0662372,222176.796875,227397.984375,249651.828125,670836.5,609132.75,227784.578125,706161.625,206613.015625,0.0
1772498291.066244,222197.453125,227399.5,249650.765625,670820.9375,609085.0,227775.1875,706164.4375,206607.109375,0.0
1772498291.0687685,222222.75,227398.703125,249646.015625,670826.3125,609066.4375,227769.734375,706167.25,206601.46875,0.0
1772498291.0712845,222223.015625,227400.046875,249643.609375,670820.3125,609050.375,227767.78125,706166.8125,206605.3125,0.0
1772498291.0737703,222206.21875,227406.125,249648.34375,670783.125,609002.75,227774.5625,706165.75,206604.0625,0.0
1772498291.076275,222211.9375,227399.15625,249645.125,670752.4375,608950.125,227777.15625,706168.4375,206599.953125,0.0
1772498291.07877,222246.625,227393.515625,249641.28125,670757.625,608945.6875,227776.625,706170.3125,206597.90625,0.0
1772498291.0812588,222254.578125,227394.765625,249638.328125,670752.625,608950.625,227777.515625,706172.4375,206598.078125,0.0
1772498291.0850196,222243.234375,227391.546875,249633.234375,670722.0625,608941.3125,227779.84375,706171.9375,206600.3125,0.0
1772498291.095728,222249.578125,227400.046875,249636.90625,670695.4375,608919.3125,227785.921875,706173.0,206600.578125,0.0
1772498291.0957575,222289.359375,227402.71875,249634.3125,670701.9375,608946.75,227783.953125,706175.3125,206594.40625,0.0
1772498291.0976331,222287.578125,227391.1875,249622.59375,670685.6875,608971.3125,227775.546875,706176.25,206588.78125,0.0
1772498291.1087744,222261.203125,227380.640625,249612.046875,670646.75,608967.3125,227768.578125,706172.3125,206579.84375,0.0
1772498291.1162825,222248.6875,227381.71875,249610.703125,670601.5625,608937.75,227760.0,706170.875,206575.8125,0.0
1772498291.1238055,222278.1875,227383.0625,249610.703125,670591.875,608947.125,227761.609375,706172.75,206576.359375,0.0
1772498291.1262772,222292.40625,227388.6875,249617.40625,670586.0625,608971.5,227771.53125,706175.9375,206582.703125,0.0
1772498291.1325824,222289.1875,227396.734375,249619.734375,670566.5625,608984.5625,227777.15625,706177.375,206587.34375,0.0
1772498291.135611,222261.828125,227380.1875,249604.453125,670507.75,608948.8125,227755.796875,706174.0625,206582.4375,0.0
1772498291.1356235,222287.390625,227376.53125,249599.890625,670493.25,608951.25,227747.5625,706175.0625,206586.8125,0.0
1772498291.1375873,222301.15625,227377.15625,249598.71875,670485.875,608971.3125,227744.265625,706176.0625,206594.40625,0.0
1772498291.1400187,222294.28125,227370.265625,249595.234375,670467.25,608996.375,227746.671875,706178.25,206583.859375,0.0
1772498291.1425667,222260.296875,227366.515625,249591.125,670408.25,608962.875,227747.828125,706177.75,206576.703125,0.0
1772498291.14505,222263.703125,227363.203125,249585.484375,670368.5625,608928.25,227743.546875,706173.875,206569.109375,0.0
1772498291.1475692,222278.1875,227361.953125,249583.796875,670353.5,608928.8125,227741.578125,706174.9375,206571.25,0.0
1772498291.1568477,222260.921875,227364.546875,249582.546875,670325.5625,608917.25,227744.796875,706176.6875,206578.859375,0.0
1772498291.156864,222218.90625,227363.203125,249578.875,670261.25,608854.375,227736.484375,706173.5625,206567.59375,0.0
1772498291.1587963,222219.890625,227365.171875,249580.578125,670218.8125,608801.0,227737.203125,706173.375,206565.265625,0.0
1772498291.1663013,222232.9375,227368.03125,249580.578125,670194.1875,608774.3125,227742.296875,706173.0625,206569.921875,0.0
1772498291.1693597,222217.828125,227362.484375,249572.34375,670156.625,608738.0,227736.125,706172.75,206570.265625,0.0
1772498291.1693735,222181.984375,227348.015625,249558.9375,670094.0625,608670.5625,227718.78125,706171.3125,206562.578125,0.0
1772498291.1775925,222170.8125,227354.171875,249562.6875,670045.0625,608586.0625,227722.890625,706169.5,206567.046875,0.0
1772498291.1843588,222186.09375,227358.640625,249562.421875,670025.375,608533.4375,227723.515625,706170.0625,206570.09375,0.0
1772498291.1843815,222176.0,227358.640625,249560.546875,669997.0,608488.25,227730.21875,706173.375,206563.125,0.0
1772498291.1887996,222143.890625,227354.265625,249556.96875,669941.625,608412.0,227725.03125,706173.375,206563.203125,0.0
1772498291.1912656,222122.34375,227352.5625,249556.703125,669876.375,608299.25,227718.515625,706168.625,206561.515625,0.0
1772498291.2013454,222138.359375,227353.8125,249557.328125,669851.4375,608230.25,227721.546875,706167.75,206559.8125,0.0
1772498291.2037816,222129.046875,227349.34375,249557.5,669821.5625,608173.5,227721.453125,706167.875,206559.90625,0.0
1772498291.2093787,222105.984375,227352.828125,249556.703125,669772.4375,608099.875,227717.890625,706164.625,206558.375,0.0
1772498291.2093964,222099.546875,227372.59375,249570.734375,669726.625,608010.3125,227738.625,706167.8125,206575.71875,0.0
1772498291.211279,222136.125,227376.34375,249575.65625,669715.9375,607956.125,227747.828125,706175.0625,206583.140625,0.0
1772498291.2139473,222132.8125,227359.984375,249558.3125,669683.3125,607898.0,227728.4375,706172.0,206569.375,0.0
1772498291.2175994,222106.609375,227353.1875,249550.625,669635.0625,607823.1875,227723.78125,706166.75,206566.609375,0.0
1772498291.2243707,222080.328125,227352.828125,249551.875,669574.625,607722.6875,227728.609375,706165.3125,206573.671875,0.0
1772498291.2243948,222100.0,227343.09375,249547.3125,669552.25,607657.25,227720.75,706168.5,206575.015625,0.0
1772498291.230034,222099.375,227334.59375,249533.015625,669525.0,607592.4375,227711.0,706167.125,206560.53125,0.0
1772498291.2444534,222095.609375,227347.921875,249541.40625,669504.0625,607538.25,227720.484375,706170.5625,206565.71875,0.0
1772498291.244482,222068.078125,227347.03125,249546.59375,669450.9375,607435.125,227719.84375,706172.1875,206574.296875,0.0
1772498291.2468536,222082.46875,227353.28125,249552.671875,669418.625,607339.6875,227723.421875,706171.375,206581.8125,0.0
1772498291.2468736,222094.09375,227352.5625,249550.359375,669395.875,607266.8125,227720.75,706169.875,206576.890625,0.0
1772498291.2487683,222082.65625,227345.6875,249546.421875,669363.6875,607194.625,227723.96875,706169.25,206574.921875,0.0
1772498291.267644,222055.375,227353.546875,249550.890625,669306.5,607081.625,227730.578125,706169.6875,206573.484375,0.0
1772498291.2712276,222051.890625,227352.828125,249550.0,669263.9375,606954.25,227732.90625,706167.8125,206572.15625,0.0
1772498291.271252,222068.890625,227351.9375,249549.1875,669250.0,606868.5,227737.640625,706170.5,206577.78125,0.0
1772498291.271265,222058.421875,227349.796875,249546.421875,669217.5,606774.875,227731.828125,706171.3125,206581.0,0.0
1772498291.2743464,222030.703125,227364.546875,249552.671875,669163.0625,606648.1875,227738.8125,706169.9375,206595.125,0.0
1772498291.2743628,222020.0625,227373.484375,249554.46875,669106.75,606501.0,227738.71875,706166.8125,206593.078125,0.0
1772498291.2762685,222038.84375,227371.609375,249551.25,669085.1875,606393.8125,227730.40625,706165.3125,206588.421875,0.0
1772498291.2825732,222041.609375,227377.78125,249561.4375,669069.3125,606303.25,227743.640625,706169.3125,206603.265625,0.0
1772498291.2850156,222016.046875,227375.453125,249563.671875,669018.6875,606180.25,227749.09375,706171.0625,206608.0,0.0
1772498291.2887957,222000.046875,227374.828125,249560.640625,668960.9375,606032.1875,227742.921875,706173.5625,206595.3125,0.0
1772498291.2969115,222022.75,227380.1875,249557.953125,668944.3125,605921.0625,227747.125,706174.4375,206597.71875,0.0
1772498291.2969496,222026.765625,227394.140625,249565.734375,668931.75,605821.5625,227761.96875,706173.375,206608.625,0.0
1772498291.3075972,222010.59375,227394.234375,249563.859375,668903.4375,605708.3125,227760.4375,706173.5625,206613.09375,0.0
1772498291.3162334,221991.375,227397.265625,249564.75,668853.25,605560.4375,227763.75,706172.375,206617.5625,0.0
1772498291.3162613,222013.984375,227393.875,249560.71875,668836.375,605445.1875,227762.59375,706172.1875,206612.390625,0.0
1772498291.3162699,222018.546875,227390.921875,249561.171875,668823.0625,605348.5625,227757.578125,706170.125,206617.125,0.0
1772498291.3263152,222005.765625,227383.140625,249554.640625,668798.5625,605255.3125,227754.0,706170.9375,206616.046875,0.0
1772498291.3287983,221995.65625,227391.28125,249561.265625,668759.3125,605142.75,227761.96875,706174.6875,206609.25,0.0
1772498291.3312948,222020.0625,227386.09375,249555.890625,668742.25,605049.9375,227763.21875,706177.1875,206600.671875,0.0
1772498291.3337803,222031.78125,227382.421875,249549.546875,668732.5625,604974.875,227758.296875,706178.25,206597.984375,0.0
1772498291.3362827,222030.703125,227386.1875,249551.25,668720.9375,604905.8125,227759.015625,706178.1875,206601.75,0.0
1772498291.3387885,222014.796875,227386.8125,249551.703125,668680.4375,604805.75,227753.015625,706178.5625,206605.046875,0.0
1772498291.342615,222048.859375,227393.421875,249556.34375,668673.3125,604733.375,227755.875,706182.75,206608.359375,0.0
1772498291.3513076,222073.078125,227383.6875,249548.125,668671.25,604691.8125,227750.875,706183.3125,206607.28125,0.0
1772498291.3587203,222069.78125,227374.203125,249541.6875,668659.5,604652.0625,227744.078125,706183.0,206602.734375,0.0
1772498291.358743,222066.46875,227379.921875,249550.0,668633.75,604596.75,227752.578125,706183.9375,206604.875,0.0
1772498291.358752,222092.390625,227385.375,249554.46875,668619.0,604549.625,227752.84375,706185.6875,206608.09375,0.0
1772498291.3618686,222123.875,227379.203125,249542.84375,668617.6875,604538.8125,227752.578125,706187.8125,206600.671875,0.0
1772498291.3618855,222129.046875,227372.140625,249534.265625,668611.6875,604538.75,227751.859375,706193.375,206588.953125,0.0
1772498291.3700924,222116.984375,227374.296875,249534.078125,668581.5625,604507.3125,227757.3125,706194.125,206591.1875,0.0
1772498291.3843648,222123.515625,227383.6875,249538.375,668553.6875,604456.4375,227759.28125,706191.4375,206594.40625,0.0
1772498291.3843925,222172.328125,227393.96875,249548.5625,668564.5625,604458.5,227764.375,706195.6875,206600.9375,0.0
1772498291.3906403,222186.1875,227390.390625,249547.3125,668559.8125,604460.5625,227753.828125,706196.8125,206595.125,0.0
1772498291.3906636,222173.75,227383.328125,249543.65625,668533.0,604441.375,227749.53125,706196.0625,206598.4375,0.0
1772498291.3925724,222175.015625,227378.671875,249542.390625,668500.3125,604402.1875,227746.765625,706195.25,206604.78125,0.0
1772498291.3950307,222218.8125,227381.453125,249545.265625,668506.4375,604410.0625,227747.296875,706197.5625,206608.359375,0.0
1772498291.3973756,222234.28125,227385.46875,249546.328125,668507.8125,604431.25,227753.109375,706200.375,206608.625,0.0
1772498291.4064033,222221.859375,227368.84375,249532.5625,668476.875,604439.375,227741.046875,706200.1875,206599.515625,0.0
1772498291.4088252,222213.1875,227364.015625,249529.34375,668434.25,604419.875,227735.671875,706201.3125,206600.671875,0.0
1772498291.411288,222254.578125,227367.59375,249526.84375,668433.25,604444.3125,227740.421875,706204.8125,206591.375,0.0
1772498291.4137683,222278.984375,227372.0625,249528.53125,668429.1875,604488.0,227743.640625,706204.0,206591.1875,0.0
1772498291.4232452,222279.53125,227366.96875,249527.203125,668411.1875,604521.8125,227745.78125,706202.6875,206595.65625,0.0
1772498291.4232757,222265.125,227362.40625,249526.296875,668367.1875,604515.8125,227742.921875,706205.5625,206593.609375,0.0
1772498291.4250357,222300.359375,227364.90625,249529.34375,668358.5625,604545.25,227741.84375,706209.1875,206584.3125,0.0
1772498291.4287813,222324.234375,227368.75,249530.859375,668357.0625,604596.75,227746.3125,706213.125,206586.09375,0.0
1772498291.4619308,222318.78125,227370.8125,249531.40625,668337.875,604633.875,227749.71875,706213.5625,206588.328125,0.0
1772498291.4619572,222284.890625,227364.1875,249526.03125,668281.5,604619.75,227746.765625,706213.3125,206589.859375,0.0
1772498291.46377,222306.96875,227367.859375,249526.296875,668263.375,604638.5625,227749.4375,706217.375,206592.265625,0.0
1772498291.466286,222323.6875,227365.4375,249518.703125,668248.375,604673.4375,227747.484375,706217.0625,206588.953125,0.0
1772498291.4687853,222328.4375,227377.6875,249525.953125,668237.0,604718.1875,227768.671875,706219.75,206602.09375,0.0
1772498291.4713223,222307.78125,227374.109375,249523.171875,668187.125,604724.75,227765.625,706221.1875,206599.234375,0.0
1772498291.478794,222319.40625,227378.140625,249522.015625,668147.75,604731.9375,227764.375,706221.8125,206587.703125,0.0
1772498291.4812877,222351.3125,227386.1875,249529.609375,668141.25,604775.5,227776.265625,706226.3125,206596.46875,0.0
1772498291.4837883,222334.328125,227376.53125,249520.046875,668103.5,604789.625,227768.3125,706223.875,206589.234375,0.0
1772498291.4862812,222305.359375,227379.203125,249520.21875,668050.25,604773.75,227771.078125,706222.5625,206594.328125,0.0
1772498291.4887707,222297.9375,227382.15625,249524.515625,668008.75,604740.0,227776.796875,706221.5625,206600.84375,0.0
1772498291.4956784,222322.0,227378.140625,249525.328125,668003.0,604750.25,227775.546875,706223.3125,206599.515625,0.0
1772498291.495702,222322.171875,227383.953125,249528.453125,667987.1875,604766.375,227781.359375,706227.25,206604.6875,0.0
1772498291.4975793,222295.53125,227381.453125,249528.625,667940.6875,604744.6875,227779.578125,706227.875,206608.265625,0.0
1772498291.4998791,222284.4375,227393.25,249539.09375,667891.5,604692.6875,227789.046875,706229.125,206624.0,0.0
1772498291.5038,222307.421875,227390.203125,249536.40625,667867.5,604665.75,227784.84375,706229.6875,206612.5625,0.0
1772498291.508832,222304.109375,227382.703125,249529.515625,667840.125,604648.75,227782.34375,706228.8125,206600.140625,0.0
1772498291.5143764,222292.046875,227391.8125,249537.21875,667807.1875,604623.1875,227781.0,706229.9375,206606.84375,0.0
1772498291.5143933,222278.546875,227405.140625,249544.8125,667752.25,604556.6875,227783.859375,706231.0,206609.875,0.0
1772498291.5162704,222304.46875,227397.359375,249539.890625,667734.375,604529.25,227786.1875,706233.1875,206607.734375,0.0
1772498291.521998,222312.875,227404.421875,249541.234375,667718.0,604517.8125,227792.1875,706236.375,206615.609375,0.0
1772498291.5220244,222288.203125,227403.703125,249535.15625,667671.375,604472.9375,227781.984375,706234.625,206611.578125,0.0
1772498291.5243676,222254.046875,227408.0,249537.03125,667607.1875,604383.0,227779.578125,706231.9375,206616.671875,0.0
1772498291.524384,222264.421875,227411.3125,249541.765625,667580.8125,604313.5625,227786.640625,706227.0625,206625.609375,0.0
1772498291.52628,222259.765625,227405.140625,249536.765625,667548.9375,604254.0625,227791.109375,706226.9375,206622.125,0.0
1772498291.5350816,222239.65625,227401.390625,249534.96875,667510.625,604187.875,227790.484375,706228.0625,206625.96875,0.0
1772498291.5393653,222212.46875,227407.375,249541.6875,667458.6875,604091.9375,227793.875,706228.0,206634.375,0.0
1772498291.5393808,222219.359375,227403.984375,249536.3125,667423.5,604007.125,227786.546875,706227.4375,206628.46875,0.0
1772498291.5450294,222230.53125,227404.0625,249539.359375,667404.5,603946.75,227792.8125,706227.375,206632.328125,0.0
1772498291.5512905,222214.265625,227409.875,249541.234375,667376.375,603889.25,227808.625,706228.0625,206636.796875,0.0
1772498291.5606587,222175.28125,227416.140625,249540.25,667319.25,603786.25,227817.84375,706226.125,206636.96875,0.0
1772498291.5606844,222172.140625,227411.390625,249535.0625,667278.375,603681.6875,227798.53125,706225.6875,206629.90625,0.0
1772498291.5625956,222189.671875,227408.890625,249532.46875,667268.5625,603619.25,227800.671875,706230.125,206635.453125,0.0
1772498291.5744216,222174.203125,227406.125,249527.109375,667245.5625,603547.0,227806.484375,706229.6875,206636.34375,0.0
1772498291.574445,222134.234375,227396.375,249519.515625,667188.6875,603432.125,227794.5,706226.75,206630.265625,0.0
1772498291.576874,222123.0625,227398.078125,249524.25,667140.6875,603303.1875,227795.9375,706228.1875,206641.078125,0.0
1772498291.576903,222140.765625,227394.328125,249522.1875,667125.5,603221.125,227796.5625,706229.9375,206635.09375,0.0
1772498291.5825891,222134.421875,227392.984375,249518.171875,667104.625,603149.0625,227791.90625,706230.3125,206629.546875,0.0
1772498291.5868614,222106.96875,227398.4375,249516.734375,667060.875,603049.375,227788.25,706228.8125,206627.40625,0.0
1772498291.5868802,222090.25,227392.625,249509.40625,667013.75,602927.9375,227785.828125,706228.1875,206624.546875,0.0
1772498291.5987859,222122.53125,227399.0625,249511.90625,667010.625,602850.5625,227788.609375,706228.375,206628.5625,0.0
1772498291.6012733,222133.34375,227390.125,249507.53125,667008.8125,602796.5625,227783.6875,706230.3125,206629.90625,0.0
1772498291.6051936,222121.640625,227394.765625,249507.265625,666986.1875,602730.75,227788.15625,706234.8125,206636.25,0.0
1772498291.607576,222109.65625,227407.640625,249511.28125,666944.4375,602627.4375,227802.015625,706236.5,206642.875,0.0
1772498291.6125865,222137.28125,227406.296875,249503.6875,666930.875,602555.25,227795.3125,706237.75,206631.875,0.0
1772498291.616862,222140.9375,227400.765625,249493.84375,666913.5,602496.3125,227785.125,706236.6875,206621.6875,0.0
1772498291.616878,222130.390625,227394.671875,249491.34375,666888.375,602428.625,227778.40625,706237.125,206619.625,0.0
1772498291.6306643,222110.375,227395.484375,249496.984375,666839.375,602317.75,227775.375,706234.0,206624.625,0.0
1772498291.6306896,222121.71875,227393.34375,249491.078125,666808.5625,602212.6875,227764.90625,706226.9375,206609.078125,0.0
1772498291.633109,222133.25,227395.9375,249490.359375,666795.375,602136.25,227762.3125,706224.75,206609.34375,0.0
1772498291.6331265,222129.328125,227396.28125,249490.984375,666780.5625,602062.9375,227767.0625,706225.6875,206613.546875,0.0
1772498291.6443598,222114.75,227407.734375,249497.609375,666736.125,601955.9375,227776.359375,706227.4375,206622.390625,0.0
1772498291.6443777,222127.53125,227410.140625,249496.265625,666703.6875,601856.125,227774.390625,706227.4375,206623.296875,0.0
1772498291.650627,222143.625,227412.921875,249500.28125,666697.5,601786.25,227783.421875,706227.875,206626.234375,0.0
1772498291.6506417,222136.203125,227415.59375,249504.125,666682.9375,601712.8125,227790.484375,706227.4375,206631.0625,0.0
1772498291.6594405,222118.6875,227422.390625,249510.65625,666644.0,601616.75,227798.0,706229.25,206638.125,0.0
1772498291.6594756,222121.984375,227424.0,249514.140625,666611.1875,601508.0,227810.421875,706229.9375,206646.625,0.0
1772498291.665628,222135.578125,227414.171875,249504.40625,666597.625,601431.0,227799.515625,706228.625,206646.453125,0.0
1772498291.6656451,222130.03125,227411.390625,249501.53125,666581.25,601361.9375,227805.234375,706230.125,206641.625,0.0
1772498291.6768644,222100.0,227399.953125,249492.515625,666530.5625,601257.3125,227799.0625,706228.4375,206635.0,0.0
1772498291.6768806,222084.171875,227391.375,249485.53125,666474.0,601129.375,227787.984375,706227.1875,206627.21875,0.0
1772498291.6856465,222105.625,227389.578125,249481.6875,666452.25,601045.25,227790.125,706227.5625,206625.34375,0.0
1772498291.6856697,222102.671875,227391.453125,249482.046875,666434.625,600973.0625,227794.78125,706229.9375,206630.359375,0.0
1772498291.6881428,222081.484375,227393.515625,249480.265625,666391.5625,600871.625,227785.65625,706231.5,206630.984375,0.0
1772498291.6881611,222056.015625,227392.796875,249475.703125,666327.8125,600730.3125,227776.171875,706231.375,206620.15625,0.0
1772498291.6962855,222074.96875,227399.59375,249479.359375,666307.6875,600627.6875,227780.203125,706230.25,206623.46875,0.0
1772498291.703117,222072.90625,227397.1875,249473.546875,666283.4375,600531.25,227775.640625,706230.5625,206613.640625,0.0
1772498291.703135,222048.3125,227397.359375,249473.109375,666243.9375,600415.4375,227781.625,706231.5625,206618.734375,0.0
1772498291.7093964,222023.828125,227408.71875,249476.6875,666181.8125,600251.3125,227794.953125,706229.625,206633.75,0.0
1772498291.7094235,222048.046875,227409.25,249474.0,666164.625,600133.75,227793.4375,706230.125,206626.421875,0.0
1772498291.7256525,222051.0,227405.765625,249471.234375,666149.4375,600037.8125,227786.734375,706231.5,206617.21875,0.0
1772498291.7256756,222033.390625,227405.234375,249470.328125,666120.9375,599934.5,227788.6875,706231.375,206623.828125,0.0
1772498291.7281177,222013.625,227411.671875,249477.578125,666070.75,599795.6875,227792.890625,706232.25,206630.53125,0.0
1772498291.7281337,222036.703125,227419.71875,249484.375,666049.75,599679.5625,227800.765625,706231.9375,206641.078125,0.0
1772498291.7326427,222050.46875,227420.78125,249486.078125,666036.25,599589.9375,227807.65625,706231.9375,206643.59375,0.0
1772498291.7400413,222037.5,227420.875,249482.40625,666007.8125,599494.4375,227806.84375,706234.125,206636.796875,0.0
1772498291.742588,222003.53125,227419.09375,249479.984375,665947.75,599359.9375,227806.84375,706235.25,206635.09375,0.0
1772498291.7450268,222014.078125,227422.125,249482.5,665917.3125,599236.0,227809.171875,706234.4375,206639.296875,0.0
1772498291.7475815,222034.015625,227412.109375,249472.84375,665905.8125,599151.125,227799.421875,706234.125,206636.34375,0.0
1772498291.7500367,222035.625,227408.796875,249472.03125,665892.9375,599079.5,227803.984375,706236.5625,206636.875,0.0
1772498291.759411,222012.46875,227407.46875,249469.078125,665841.75,598964.8125,227800.671875,706235.4375,206626.953125,0.0
1772498291.7594337,222018.640625,227403.0,249467.46875,665809.125,598855.1875,227794.78125,706235.875,206621.59375,0.0
1772498291.7612867,222049.65625,227407.015625,249469.53125,665811.3125,598792.8125,227798.0,706236.8125,206623.015625,0.0
1772498291.765046,222057.53125,227412.46875,249469.4375,665807.4375,598745.0625,227801.65625,706239.4375,206631.0625,0.0
1772498291.7743664,222045.015625,227411.390625,249467.828125,665773.9375,598674.0,227800.40625,706239.875,206631.609375,0.0
1772498291.7743828,222039.015625,227401.5625,249459.703125,665733.625,598582.9375,227788.0625,706238.25,206620.515625,0.0
1772498291.776904,222067.09375,227398.171875,249453.53125,665733.4375,598539.3125,227777.96875,706236.5625,206614.796875,0.0
1772498291.7769136,222075.140625,227397.0,249452.0,665733.0,598510.75,227773.40625,706239.0625,206616.5,0.0
1772498291.78512,222057.4375,227391.375,249440.921875,665697.125,598458.5,227768.125,706238.0625,206598.875,0.0
1772498291.7900963,222049.296875,227392.265625,249440.921875,665652.3125,598384.5,227768.9375,706237.75,206598.171875,0.0
1772498291.793782,222088.546875,227397.8125,249443.515625,665649.0,598353.4375,227771.890625,706240.9375,206601.46875,0.0
1772498291.8031113,222100.625,227403.4375,249441.28125,665636.125,598330.6875,227780.296875,706242.8125,206599.234375,0.0
1772498291.8031285,222085.421875,227407.28125,249435.90625,665603.75,598287.625,227780.921875,706241.9375,206601.75,0.0
1772498291.8050218,222060.921875,227393.875,249426.171875,665549.0625,598205.0625,227775.734375,706240.75,206600.3125,0.0
1772498291.8087904,222089.984375,227393.15625,249426.53125,665535.8125,598160.0625,227778.765625,706244.8125,206597.90625,0.0
1772498291.820493,222093.921875,227388.953125,249422.140625,665515.625,598119.125,227771.796875,706245.25,206598.34375,0.0
1772498291.8205116,222075.140625,227384.671875,249416.515625,665484.625,598064.5625,227771.078125,706244.625,206597.359375,0.0
1772498291.8300772,222052.34375,227390.65625,249418.03125,665433.1875,597971.75,227778.953125,706242.375,206603.796875,0.0
1772498291.8325925,222081.484375,227399.5,249421.703125,665417.0,597911.9375,227782.4375,706243.5625,206607.5625,0.0
1772498291.8350756,222092.484375,227388.953125,249412.9375,665401.875,597868.75,227778.5,706245.0625,206603.53125,0.0
1772498291.8375912,222080.953125,227385.296875,249408.46875,665377.5,597824.25,227777.78125,706246.9375,206609.34375,0.0
1772498291.84004,222052.078125,227388.234375,249407.390625,665320.375,597730.3125,227779.125,706244.5,206601.46875,0.0
1772498291.8437772,222075.234375,227397.265625,249416.59375,665298.1875,597658.25,227788.34375,706248.8125,206604.78125,0.0
1772498291.8506284,222090.078125,227392.890625,249412.3125,665283.0,597605.3125,227783.6875,706249.25,206603.796875,0.0
1772498291.8506446,222080.59375,227393.78125,249408.28125,665258.5,597545.6875,227785.390625,706245.9375,206604.25,0.0
1772498291.8537748,222054.75,227397.890625,249409.625,665207.6875,597452.6875,227782.078125,706246.5625,206604.609375,0.0
1772498291.86318,222059.9375,227404.953125,249412.9375,665169.0,597357.375,227789.859375,706247.0,206606.84375,0.0
1772498291.8632069,222086.578125,227414.96875,249418.484375,665156.375,597300.3125,227801.75,706246.5,206613.359375,0.0
1772498291.8681452,222077.109375,227410.953125,249415.796875,665130.8125,597238.5625,227792.09375,706246.3125,206613.28125,0.0
1772498291.8681679,222040.0,227392.625,249403.015625,665073.125,597136.4375,227765.71875,706243.25,206604.25,0.0
1772498291.8700347,222051.0,227414.078125,249425.09375,665044.6875,597036.375,227790.390625,706245.75,206623.734375,0.0
1772498291.8838234,222073.0,227414.796875,249422.234375,665031.5625,596960.9375,227794.953125,706246.875,206612.65625,0.0
1772498291.88628,222086.140625,227431.15625,249439.046875,665030.125,596910.4375,227807.734375,706251.5625,206635.09375,0.0
1772498291.8887937,222056.640625,227419.984375,249428.765625,664979.25,596810.75,227782.890625,706248.3125,206619.890625,0.0
1772498291.8913069,222046.625,227430.171875,249437.25,664925.625,596687.25,227790.296875,706246.5625,206622.484375,0.0
1772498291.8937898,222078.265625,227440.71875,249447.53125,664915.625,596603.125,227804.875,706247.3125,206627.40625,0.0
1772498291.902632,222081.21875,227435.1875,249443.0625,664898.8125,596529.5625,227798.625,706247.9375,206619.890625,0.0
1772498291.9056358,222071.03125,227441.609375,249445.75,664871.4375,596446.5625,227802.375,706252.375,206628.125,0.0
1772498291.9056547,222053.6875,227454.21875,249451.015625,664816.5625,596317.375,227812.203125,706252.8125,206638.484375,0.0
1772498291.9076002,222072.90625,227453.421875,249445.5625,664790.0625,596212.3125,227815.0625,706249.25,206636.875,0.0
1772498291.91634,222089.890625,227457.0,249446.90625,664780.0625,596135.25,227826.25,706249.8125,206650.65625,0.0
1772498291.9206572,222077.375,227459.765625,249446.46875,664753.0,596050.3125,227833.9375,706250.8125,206659.046875,0.0
1772498291.9206784,222062.71875,227473.625,249462.5625,664709.25,595938.75,227843.328125,706255.375,206665.671875,0.0
1772498291.933828,222090.4375,227476.484375,249466.3125,664691.375,595841.1875,227844.84375,706256.75,206673.53125,0.0
1772498291.9368975,222100.09375,227469.78125,249456.390625,664672.8125,595758.125,227835.8125,706255.5,206672.640625,0.0
1772498291.9369254,222081.9375,227459.859375,249445.5625,664638.5625,595672.0625,227831.078125,706255.375,206667.015625,0.0
1772498291.938805,222066.296875,227465.3125,249452.1875,664591.4375,595564.3125,227837.421875,706257.9375,206667.90625,0.0
1772498291.941286,222088.46875,227474.421875,249458.625,664564.625,595459.5,227842.875,706258.75,206668.4375,0.0
1772498291.9482083,222112.328125,227478.359375,249463.625,664555.3125,595381.9375,227850.828125,706258.3125,206674.609375,0.0
1772498291.948231,222104.375,227471.296875,249457.1875,664533.3125,595310.25,227849.3125,706259.125,206665.9375,0.0
1772498291.9562902,222077.203125,227467.8125,249453.796875,664478.5625,595204.875,227842.703125,706258.5,206658.34375,0.0
1772498291.958826,222092.125,227473.359375,249460.765625,664447.5625,595106.3125,227841.53125,706260.0,206662.546875,0.0
1772498291.9731524,222121.8125,227476.484375,249463.0,664438.375,595046.0,227842.15625,706260.8125,206661.203125,0.0
1772498291.973179,222121.09375,227476.3125,249460.40625,664412.6875,594982.375,227837.25,706258.125,206652.609375,0.0
1772498291.9756472,222100.984375,227470.859375,249452.453125,664367.0,594899.375,227825.890625,706258.0,206644.484375,0.0
1772498291.9756787,222113.234375,227474.078125,249460.953125,664341.1875,594817.125,227833.9375,706261.4375,206653.78125,0.0
1772498291.9775865,222153.015625,227472.8125,249460.765625,664342.9375,594768.4375,227835.546875,706262.0625,206657.625,0.0
1772498291.9837809,222171.078125,227479.890625,249464.34375,664341.5,594740.4375,227844.578125,706264.625,206669.25,0.0
1772498291.9862978,222165.53125,227477.203125,249461.21875,664314.5,594701.625,227839.03125,706267.25,206673.0,0.0
1772498292.0031548,222159.0,227480.6875,249462.828125,664270.5625,594628.75,227841.890625,706267.625,206671.75,0.0
1772498292.003182,222198.796875,227480.234375,249459.609375,664268.6875,594604.625,227834.296875,706267.6875,206664.59375,0.0
1772498292.0050352,222224.984375,227483.453125,249463.984375,664281.0,594618.3125,227843.40625,706271.875,206674.875,0.0
1772498292.0075865,222221.859375,227485.609375,249462.734375,664267.125,594618.6875,227849.140625,706272.0625,206677.828125,0.0
1772498292.0138767,222215.515625,227487.75,249459.96875,664231.3125,594589.25,227852.359375,706271.625,206680.515625,0.0
1772498292.0163293,222260.921875,227492.21875,249461.65625,664240.25,594604.1875,227865.578125,706275.1875,206688.921875,0.0
1772498292.0194077,222289.0,227498.75,249460.5,664247.9375,594635.625,227869.25,706276.375,206692.484375,0.0
1772498292.0194223,222292.046875,227498.21875,249454.515625,664241.1875,594668.625,227859.234375,706279.75,206685.515625,0.0
1772498292.023805,222278.984375,227490.796875,249447.984375,664202.5625,594661.75,227848.78125,706279.6875,206675.5,0.0
1772498292.0279672,222322.171875,227502.6875,249457.015625,664204.5625,594689.4375,227859.859375,706282.8125,206686.59375,0.0
1772498292.0279813,222348.453125,227500.265625,249449.6875,664206.375,594740.875,227853.6875,706284.125,206682.5625,0.0
1772498292.0350497,222348.375,227493.03125,249446.015625,664197.75,594792.125,227847.53125,706286.0,206680.15625,0.0
1772498292.039378,222342.921875,227490.171875,249452.1875,664171.0625,594816.875,227852.0,706288.5,206676.046875,0.0
1772498292.0394008,222376.0,227490.515625,249456.484375,664163.875,594850.125,227851.375,706288.875,206674.609375,0.0
1772498292.0526173,222413.546875,227487.65625,249451.921875,664169.75,594923.625,227848.15625,706291.375,206667.71875,0.0
1772498292.055636,222421.859375,227487.9375,249448.078125,664160.5,594998.75,227849.3125,706294.0625,206670.9375,0.0
1772498292.0556529,222400.40625,227484.71875,249441.375,664116.0625,595029.1875,227849.40625,706292.625,206670.046875,0.0
1772498292.0575852,222418.109375,227485.34375,249438.59375,664092.0,595066.125,227847.609375,706292.875,206669.6875,0.0
1772498292.0600233,222462.71875,227490.4375,249438.0625,664101.0,595146.0625,227843.140625,706295.75,206668.078125,0.0
1772498292.0637887,222471.9375,227496.6875,249442.796875,664098.0,595225.4375,227846.453125,706300.9375,206674.796875,0.0
1772498292.0776272,222459.6875,227510.8125,249447.359375,664072.6875,595273.8125,227860.671875,706302.5625,206683.28125,0.0
1772498292.1031513,222450.296875,227501.15625,249432.15625,664030.8125,595292.9375,227856.28125,706302.3125,206669.0625,0.0
1772498292.1031785,222482.21875,227489.625,249423.578125,664027.25,595359.8125,227854.671875,706304.5,206675.234375,0.0
1772498292.105034,222485.515625,227483.375,249419.28125,664012.125,595424.9375,227843.765625,706304.0625,206673.0,0.0
1772498292.107586,222476.21875,227489.890625,249423.390625,663982.375,595474.3125,227849.765625,706304.9375,206681.40625,0.0
1772498292.1100297,222466.296875,227494.71875,249429.03125,663944.125,595497.5,227861.375,706306.8125,206689.625,0.0
1772498292.1125994,222500.265625,227500.0,249432.515625,663942.0625,595556.0625,227867.109375,706308.8125,206686.6875,0.0
1772498292.1150436,222507.953125,227486.5,249428.40625,663932.3125,595625.5625,227849.140625,706308.4375,206681.140625,0.0
1772498292.1212945,222501.609375,227488.90625,249435.28125,663914.0625,595687.0,227850.203125,706309.5,206690.703125,0.0
1772498292.1237967,222498.484375,227505.8125,249451.921875,663879.75,595716.1875,227871.484375,706315.25,206700.09375,0.0
1772498292.1263015,222522.984375,227508.40625,249452.0,663856.125,595752.8125,227869.421875,706314.25,206694.8125,0.0
1772498292.1326065,222517.53125,227490.796875,249435.734375,663822.625,595795.25,227843.046875,706314.5625,206677.921875,0.0
1772498292.1463747,222497.671875,227485.78125,249431.890625,663786.375,595829.4375,227844.21875,706315.0,206679.078125,0.0
1772498292.1487963,222469.15625,227489.0,249434.578125,663727.3125,595818.4375,227850.65625,706315.0,206679.171875,0.0
1772498292.1513033,222485.34375,227487.21875,249431.0,663696.25,595824.25,227846.90625,706314.625,206671.921875,0.0
1772498292.1544824,222495.4375,227482.296875,249431.0,663679.375,595854.6875,227844.3125,706315.5,206667.28125,0.0
1772498292.154499,222488.203125,227486.671875,249439.671875,663658.625,595882.0625,227857.1875,706315.9375,206675.328125,0.0
1772498292.1563148,222465.21875,227497.765625,249444.40625,663609.5625,595872.75,227870.0625,706319.0,206684.625,0.0
1772498292.1587915,222468.265625,227492.40625,249437.703125,663571.375,595866.25,227867.90625,706321.0625,206683.90625,0.0
1772498292.1613038,222482.84375,227500.359375,249440.65625,663555.625,595886.4375,227876.84375,706319.375,206680.875,0.0
1772498292.1663728,222467.8125,227502.59375,249443.0625,663528.375,595892.1875,227882.390625,706318.625,206689.984375,0.0
1772498292.1712964,222431.96875,227498.03125,249436.625,663465.3125,595859.1875,227868.0,706316.75,206678.1875,0.0
1772498292.1737778,222424.359375,227496.15625,249430.28125,663413.125,595818.3125,227864.875,706316.5625,206679.265625,0.0
1772498292.1762831,222446.625,227494.453125,249429.203125,663403.1875,595825.3125,227876.671875,706320.375,206691.15625,0.0
1772498292.1787925,222435.359375,227500.453125,249432.34375,663381.75,595819.8125,227882.65625,706319.6875,206700.09375,0.0
1772498292.1818802,222411.9375,227513.40625,249438.328125,663341.875,595790.625,227891.78125,706320.1875,206712.78125,0.0
1772498292.1818912,222399.515625,227522.0,249442.4375,663296.4375,595732.9375,227898.578125,706318.1875,206715.828125,0.0
1772498292.1837823,222417.125,227513.40625,249439.765625,663282.5,595705.6875,227895.796875,706319.6875,206716.546875,0.0
1772498292.1863024,222416.5,227514.65625,249444.5,663267.3125,595693.625,227907.78125,706322.75,206726.828125,0.0
1772498292.1888,222396.5625,227532.09375,249455.40625,663228.125,595651.0625,227914.3125,706322.25,206735.234375,0.0
1772498292.195653,222363.125,227521.015625,249449.140625,663163.6875,595563.4375,227900.453125,706320.0625,206724.5,0.0
1772498292.1956751,222370.28125,227505.359375,249437.796875,663135.875,595513.4375,227889.8125,706318.75,206711.265625,0.0
1772498292.1975904,222367.234375,227499.90625,249438.328125,663119.625,595487.4375,227890.265625,706321.3125,206714.578125,0.0
1772498292.2012806,222340.328125,227500.171875,249436.453125,663077.5625,595434.125,227889.359375,706319.0,206716.984375,0.0
1772498292.2081077,222298.125,227495.4375,249428.84375,663004.875,595323.625,227872.109375,706314.4375,206706.265625,0.0
1772498292.2081208,222316.546875,227503.046875,249437.609375,662982.875,595248.8125,227871.03125,706316.75,206707.59375,0.0
1772498292.2163584,222326.546875,227518.234375,249448.15625,662968.625,595185.3125,227880.875,706321.3125,206711.71875,0.0
1772498292.2231486,222308.140625,227517.4375,249447.265625,662932.5625,595100.75,227885.96875,706321.875,206711.453125,0.0
1772498292.223173,222263.703125,227502.6875,249436.546875,662860.3125,594964.125,227873.1875,706319.5625,206705.28125,0.0
1772498292.2256515,222271.84375,227510.28125,249437.171875,662828.9375,594852.4375,227872.375,706318.625,206707.421875,0.0
1772498292.2256694,222277.734375,227521.1875,249441.71875,662814.375,594768.0625,227887.046875,706319.0,206720.75,0.0
1772498292.2363143,222256.734375,227518.328125,249438.0625,662785.25,594680.875,227891.421875,706319.0625,206710.375,0.0
1772498292.2406695,222212.921875,227520.390625,249433.765625,662720.9375,594537.625,227887.9375,706315.3125,206705.09375,0.0
1772498292.2406926,222220.96875,227537.015625,249442.4375,662694.1875,594409.8125,227902.78125,706317.0625,206720.65625,0.0
1772498292.251341,222234.203125,227539.34375,249439.765625,662676.3125,594301.25,227911.0,706317.5,206729.15625,0.0
1772498292.2568953,222209.078125,227534.6875,249425.8125,662644.6875,594180.375,227910.28125,706316.3125,206729.953125,0.0
1772498292.2569172,222167.234375,227505.8125,249411.328125,662594.25,594039.1875,227902.953125,706314.0625,206728.96875,0.0
1772498292.2588124,222171.96875,227525.03125,249422.140625,662562.3125,593897.75,227909.390625,706312.5625,206732.546875,0.0
1772498292.2613192,222201.5625,227552.484375,249431.171875,662560.25,593794.25,227913.953125,706310.875,206735.234375,0.0
1772498292.2650561,222192.265625,227532.546875,249426.796875,662548.9375,593696.0,227921.015625,706312.0,206740.234375,0.0
1772498292.2744014,222156.140625,227512.515625,249414.984375,662498.0625,593561.625,227908.953125,706309.25,206732.90625,0.0
