timestamps,Fz,C3,Cz,C4,Pz,PO7,Oz,PO8,stim
1771965298.0559206,282575.78125,707990.9375,708517.9375,708540.5625,708403.375,708430.1875,708777.1875,709128.625,0.0
1771965298.058328,282558.875,707932.375,708459.3125,708481.5625,708344.625,708371.4375,708718.25,709069.5,0.0
1771965298.0609326,282620.46875,707661.4375,708189.0625,708210.5,708073.6875,708100.4375,708447.4375,708799.0625,0.0
1771965298.0636256,282650.96875,707690.6875,708218.375,708240.0,708103.625,708130.0,708477.125,708828.5,0.0
1771965298.0683272,282595.25,707961.5,708488.9375,708510.625,708374.3125,708400.875,708747.75,709098.9375,0.0
1771965298.0709436,282550.03125,707969.375,708496.125,708518.25,708382.0625,708408.25,708755.0,709106.6875,0.0
1771965298.0738864,282603.65625,707699.5625,708225.875,708247.9375,708111.875,708137.75,708484.8125,708836.375,0.0
1771965298.0739567,282648.5625,707659.0625,708185.4375,708207.75,708071.375,708097.5625,708444.625,708796.125,0.0
1771965298.076115,282590.15625,707918.3125,708445.1875,708467.25,708330.5,708357.3125,708704.0,709055.5625,0.0
1771965298.0761616,282536.6875,707998.4375,708525.125,708547.5625,708410.6875,708437.5625,708784.125,709136.0625,0.0
1771965298.078901,282587.84375,707745.9375,708272.8125,708295.4375,708158.375,708185.1875,708531.625,708883.5625,0.0
1771965298.0789728,282649.28125,707637.5,708164.625,708186.6875,708050.375,708076.8125,708423.375,708775.25,0.0
1771965298.0813842,282606.0,707872.0625,708398.6875,708421.0625,708284.375,708311.0,708658.0,709009.375,0.0
1771965298.0814524,282535.53125,708017.5625,708543.875,708566.0625,708429.625,708456.25,708803.1875,709154.625,0.0
1771965298.0835936,282570.15625,707797.875,708324.75,708346.75,708210.25,708236.625,708583.5625,708935.125,0.0
1771965298.0863883,282642.1875,707627.5,708154.0625,708176.25,708039.625,708066.1875,708412.9375,708764.375,0.0
1771965298.0864587,282615.28125,707827.5,708354.0625,708376.5,708239.9375,708266.375,708612.8125,708964.8125,0.0
1771965298.1214993,282549.65625,708026.25,708552.8125,708575.1875,708438.6875,708464.875,708811.5625,709163.5,0.0
1771965298.128542,282566.84375,707853.3125,708379.8125,708402.25,708265.6875,708291.875,708638.6875,708990.0625,0.0
1771965298.1285903,282638.34375,707633.5625,708160.4375,708182.625,708046.1875,708072.625,708419.625,708770.875,0.0
1771965298.1285992,282615.5625,707782.3125,708309.75,708331.625,708195.1875,708221.5625,708568.3125,708920.1875,0.0
1771965298.131375,282545.03125,708022.0,708549.0625,708571.0625,708434.4375,708461.1875,708807.9375,709159.75,0.0
1771965298.137172,282544.03125,707905.5,708431.9375,708454.125,708317.3125,708344.1875,708691.0625,709042.8125,0.0
1771965298.1401367,282614.5,707651.25,708178.5,708200.6875,708064.0625,708090.5,708437.3125,708788.875,0.0
1771965298.1425836,282627.375,707736.625,708264.5625,708286.5,708149.875,708176.3125,708523.0,708874.8125,0.0
1771965298.145029,282565.59375,707999.25,708526.5625,708548.8125,708412.0,708438.5,708785.5625,709137.125,0.0
1771965298.1476276,282536.0625,707947.5625,708474.25,708496.6875,708360.0625,708386.875,708733.4375,709085.625,0.0
1771965298.1503558,282601.78125,707677.625,708204.9375,708226.75,708090.125,708117.125,708463.625,708815.25,0.0
1771965298.157502,282631.84375,707699.0625,708226.6875,708248.375,708112.0,708138.625,708485.125,708836.6875,0.0
1771965298.1634803,282568.8125,707970.875,708498.0,708519.9375,708383.5,708410.0625,708756.9375,709108.9375,0.0
1771965298.1659584,282531.96875,707991.6875,708518.0625,708540.875,708403.625,708430.375,708777.5,709129.3125,0.0
1771965298.171321,282588.125,707721.875,708248.9375,708271.375,708134.5,708161.25,708508.3125,708859.875,0.0
1771965298.1713936,282632.28125,707673.0,708200.375,708222.75,708085.9375,708112.5,708459.375,708811.0625,0.0
1771965298.1737032,282580.96875,707932.6875,708459.5,708481.875,708345.3125,708371.625,708718.3125,709070.25,0.0
1771965298.1763792,282527.84375,708019.0,708545.5,708568.125,708431.25,708458.0625,708804.625,709156.5,0.0
1771965298.1764517,282579.875,707768.3125,708295.0,708317.0625,708180.75,708207.125,708553.75,708905.875,0.0
1771965298.178444,282643.375,707652.875,708180.0,708201.9375,708065.6875,708091.9375,708438.3125,708790.5625,0.0
1771965298.178495,282604.375,707887.75,708415.0,708437.125,708300.25,708327.25,708673.375,709025.6875,0.0
1771965298.1813245,282542.5,708039.4375,708566.6875,708588.875,708451.8125,708478.8125,708825.375,709177.4375,0.0
1771965298.1834958,282575.78125,707825.125,708352.375,708374.3125,708237.4375,708264.25,708610.9375,708962.5625,0.0
1771965298.1908484,282645.59375,707648.5,708175.8125,708198.1875,708061.375,708088.125,708434.4375,708786.4375,0.0
1771965298.1908653,282618.96875,707840.4375,708367.9375,708390.125,708253.125,708279.8125,708626.625,708978.3125,0.0
1771965298.1975672,282547.4375,708044.8125,708572.5,708594.6875,708457.1875,708484.25,708831.0,709182.375,0.0
1771965298.1976595,282555.46875,707878.5,708405.875,708428.3125,708291.4375,708318.3125,708664.9375,709016.25,0.0
1771965298.2313416,282626.375,707650.1875,708177.6875,708200.125,708063.4375,708090.0,708436.6875,708788.0625,0.0
1771965298.2314143,282625.65625,707791.0625,708318.875,708340.75,708204.0625,708230.625,708577.25,708929.25,0.0
1771965298.2339168,282560.3125,708036.5,708564.125,708585.75,708448.75,708475.3125,708822.375,709174.5625,0.0
1771965298.2340012,282558.15625,707927.1875,708454.6875,708476.375,708339.9375,708366.3125,708713.4375,709064.9375,0.0
1771965298.2425208,282620.21875,707668.875,708196.8125,708218.4375,708081.75,708108.5625,708455.125,708806.5625,0.0
1771965298.2449684,282633.875,707747.875,708275.5625,708297.5625,708160.3125,708187.25,708534.0625,708885.8125,0.0
1771965298.24969,282570.40625,708011.5,708538.6875,708561.0,708423.9375,708450.5625,708797.375,709149.625,0.0
1771965298.2525747,282542.4375,707970.0,708497.375,708519.5625,708382.3125,708409.25,708756.25,709108.0625,0.0
1771965298.254893,282609.65625,707699.625,708227.75,708249.75,708112.25,708139.6875,708486.4375,708838.0625,0.0
1771965298.2596908,282638.4375,707713.1875,708241.0625,708262.6875,708125.5625,708152.9375,708499.5625,708851.125,0.0
1771965298.2620757,282570.40625,707983.3125,708510.4375,708532.25,708395.5,708422.5,708769.1875,709120.6875,0.0
1771965298.264585,282535.53125,708011.5625,708539.0625,708560.875,708424.375,708451.1875,708797.75,709149.375,0.0
1771965298.2672164,282591.875,707744.4375,708271.9375,708293.625,708157.1875,708184.125,708530.5625,708882.3125,0.0
1771965298.2722294,282647.9375,707686.1875,708213.375,708235.1875,708098.625,708125.5625,708472.0,708823.9375,0.0
1771965298.278422,282597.15625,707943.375,708470.75,708492.9375,708356.125,708382.9375,708729.0625,709081.25,0.0
1771965298.280958,282540.46875,708041.0,708568.5,708590.625,708453.875,708480.5,708827.125,709178.9375,0.0
1771965298.2835336,282593.21875,707794.0625,708321.75,708343.875,708207.125,708233.5625,708580.5625,708932.0,0.0
1771965298.283548,282655.25,707671.375,708198.625,708221.0625,708084.1875,708110.8125,708457.625,708808.875,0.0
1771965298.285833,282603.03125,707898.125,708425.875,708447.625,708310.5625,708337.0,708684.375,709035.5625,0.0
1771965298.2884283,282546.09375,708055.8125,708583.0625,708604.9375,708468.0625,708494.4375,708841.625,709193.0625,0.0
1771965298.288444,282567.09375,707843.9375,708371.6875,708393.4375,708256.75,708283.4375,708630.4375,708982.0625,0.0
1771965298.2937853,282632.375,707659.125,708187.3125,708208.875,708072.25,708099.1875,708445.625,708797.625,0.0
1771965298.2938204,282610.5625,707847.0625,708375.1875,708397.0,708260.3125,708287.1875,708633.5625,708985.1875,0.0
1771965298.2960272,282547.0625,708056.0625,708583.5625,708605.5625,708469.125,708495.8125,708842.3125,709194.0,0.0
1771965298.2997196,282559.0625,707896.25,708423.8125,708445.1875,708309.3125,708335.875,708682.5,709033.9375,0.0
1771965298.2997563,282633.4375,707666.0,708193.9375,708215.0625,708078.8125,708105.8125,708452.1875,708803.5625,0.0
1771965298.3302016,282635.9375,707799.25,708326.75,708348.625,708211.8125,708238.75,708584.9375,708937.0,0.0
1771965298.3302667,282573.53125,708045.4375,708573.25,708595.0625,708458.4375,708485.25,708831.6875,709183.625,0.0
1771965298.347493,282559.84375,707945.9375,708473.875,708495.625,708358.625,708385.9375,708732.1875,709084.0,0.0
1771965298.347542,282623.78125,707684.25,708212.4375,708234.0,708096.9375,708124.375,708470.5625,708822.125,0.0
1771965298.3523033,282633.625,707752.9375,708281.0625,708302.5625,708165.6875,708192.8125,708539.0625,708890.6875,0.0
1771965298.3551748,282566.5625,708019.8125,708547.5,708568.75,708432.125,708458.75,708805.5,709157.3125,0.0
1771965298.3576217,282540.0,707986.8125,708514.6875,708535.9375,708399.5,708426.125,708772.625,709124.4375,0.0
1771965298.359717,282607.78125,707714.625,708242.75,708264.3125,708127.6875,708154.8125,708501.0625,708852.6875,0.0
1771965298.367358,282634.78125,707715.0625,708243.3125,708264.6875,708128.0625,708155.125,708501.5,708852.875,0.0
1771965298.369576,282568.0,707984.5,708512.6875,708533.875,708397.25,708424.25,708770.625,709122.4375,0.0
1771965298.3720856,282525.875,708024.5,708552.1875,708573.875,708437.125,708463.9375,708810.625,709162.4375,0.0
1771965298.3746076,282586.9375,707760.75,708288.4375,708310.125,708173.5625,708200.375,708547.125,708899.0,0.0
1771965298.3796356,282635.21875,707693.875,708220.75,708242.4375,708106.0625,708133.1875,708479.625,708831.6875,0.0
1771965298.3820057,282585.78125,707949.875,708477.125,708498.5625,708361.9375,708389.25,708735.75,709087.75,0.0
1771965298.4241257,282530.4375,708053.0625,708580.8125,708602.4375,708465.8125,708493.125,708839.375,709191.375,0.0
1771965298.426412,282585.59375,707811.3125,708339.125,708360.6875,708224.1875,708251.25,708597.625,708949.5625,0.0
1771965298.4264832,282638.8125,707675.8125,708203.375,708225.1875,708088.8125,708115.4375,708461.9375,708813.5625,0.0
1771965298.428563,282593.9375,707897.5625,708425.4375,708447.25,708310.375,708337.25,708683.625,709035.625,0.0
1771965298.4311912,282529.0,708063.25,708590.9375,708613.1875,708475.9375,708502.875,708849.3125,709201.5,0.0
1771965298.4335625,282563.15625,707862.0,708389.9375,708412.0,708274.75,708301.6875,708648.25,709000.125,0.0
1771965298.4359941,282629.59375,707671.5625,708199.3125,708220.9375,708083.875,708111.1875,708457.625,708809.25,0.0
1771965298.4360375,282612.59375,707851.25,708378.6875,708400.5,708263.3125,708290.625,708637.3125,708988.9375,0.0
1771965298.4389172,282538.59375,708067.4375,708595.0625,708616.875,708479.5,708506.8125,708853.5,709205.3125,0.0
1771965298.443737,282546.53125,707916.625,708444.625,708466.375,708329.25,708356.4375,708703.125,709054.875,0.0
1771965298.4460957,282627.1875,707684.5,708212.4375,708234.1875,708097.375,708124.375,708470.9375,708822.5,0.0
1771965298.4600868,282607.0625,707805.3125,708333.25,708355.25,708218.25,708245.1875,708591.75,708943.375,0.0
1771965298.4624658,282547.25,708054.375,708582.1875,708603.625,708467.375,708494.0,708840.25,709192.5625,0.0
1771965298.4649496,282546.4375,707966.0,708493.625,708515.375,708378.375,708405.3125,708751.4375,709103.6875,0.0
1771965298.4674025,282607.96875,707704.4375,708232.375,708253.875,708116.8125,708143.8125,708490.0,708842.25,0.0
1771965298.4702196,282620.9375,707764.4375,708292.3125,708313.75,708177.125,708203.6875,708550.4375,708902.4375,0.0
1771965298.4727218,282554.21875,708032.875,708560.6875,708582.5,708445.375,708472.0,708818.8125,709170.75,0.0
1771965298.4773035,282532.15625,708009.6875,708537.4375,708559.125,708421.9375,708448.875,708795.5625,709147.5,0.0
1771965298.4773817,282595.09375,707739.3125,708267.375,708288.5625,708151.875,708178.3125,708525.375,708877.375,0.0
1771965298.4813657,282636.125,707733.0,708260.9375,708282.125,708145.5625,708172.0625,708519.125,708870.75,0.0
1771965298.4814358,282574.6875,707998.5,708526.8125,708547.625,708411.375,708437.75,708784.75,709136.5,0.0
1771965298.4814558,282532.21875,708046.625,708574.1875,708595.6875,708458.9375,708485.6875,708832.6875,709184.6875,0.0
1771965298.4862087,282593.21875,707782.9375,708310.375,708332.4375,708195.0,708222.375,708569.0,708920.75,0.0
1771965298.4862564,282635.40625,707705.625,708233.3125,708255.1875,708117.875,708145.25,708491.6875,708843.4375,0.0
1771965298.490055,282591.96875,707959.4375,708486.9375,708508.6875,708371.625,708398.6875,708745.0625,709096.9375,0.0
1771965298.4901023,282539.5625,708074.75,708602.125,708624.0,708486.75,708513.9375,708860.375,709212.0625,0.0
1771965298.4901135,282573.90625,707834.875,708362.375,708384.375,708247.3125,708274.25,708620.875,708972.25,0.0
1771965298.4922204,282640.78125,707692.3125,708219.625,708241.5,708104.5625,708131.375,708477.8125,708830.0,0.0
1771965298.4951074,282601.0,707913.125,708440.75,708462.4375,708325.5625,708352.5,708698.9375,709051.0,0.0
1771965298.4951541,282524.8125,708086.25,708613.875,708635.6875,708498.5625,708525.6875,708872.625,709224.125,0.0
1771965298.499733,282553.59375,707889.4375,708417.0,708438.6875,708301.5,708328.875,708675.5,709027.0625,0.0
1771965298.5026429,282620.65625,707692.5625,708220.25,708241.6875,708105.375,708132.375,708478.6875,708830.375,0.0
1771965298.5027149,282605.1875,707865.3125,708393.3125,708414.8125,708278.4375,708305.25,708651.625,709003.5625,0.0
1771965298.5049527,282536.96875,708087.9375,708615.6875,708637.625,708500.6875,708527.625,708874.25,709225.875,0.0
1771965298.5074453,282543.21875,707942.875,708470.375,708492.125,708355.25,708382.1875,708728.8125,709080.5,0.0
1771965298.5095916,282612.6875,707703.9375,708231.6875,708253.5,708116.625,708143.1875,708489.875,708841.875,0.0
1771965298.512142,282614.75,707820.6875,708348.1875,708370.375,708233.375,708259.6875,708606.6875,708958.5625,0.0
1771965298.5121577,282543.84375,708075.875,708603.4375,708625.5,708488.375,708515.0,708862.1875,709214.0625,0.0
1771965298.5147269,282524.09375,707994.125,708521.75,708543.6875,708406.5625,708433.1875,708780.375,709132.4375,0.0
1771965298.5147417,282601.53125,707728.6875,708256.4375,708278.25,708141.0,708167.5625,708515.125,708866.8125,0.0
1771965298.5301697,282619.40625,707778.8125,708306.4375,708328.1875,708191.625,708217.8125,708565.0625,708917.0,0.0
1771965298.5378132,282551.8125,708047.4375,708575.4375,708596.9375,708460.375,708486.75,708833.9375,709185.5625,0.0
1771965298.5378854,282507.5625,708034.625,708562.375,708583.6875,708447.1875,708473.8125,708820.875,709172.4375,0.0
1771965298.5379045,282566.84375,707762.3125,708290.3125,708311.5,708174.625,708201.5625,708548.5625,708900.25,0.0
1771965298.5727549,282613.15625,707746.75,708274.75,708296.5,708159.5625,708186.4375,708533.25,708884.875,0.0
1771965298.5728264,282559.21875,708012.625,708540.3125,708562.3125,708425.0625,708452.0625,708799.0,709150.8125,0.0
1771965298.5728467,282514.875,708066.4375,708594.0625,708615.5,708479.0625,708505.875,708852.375,709204.625,0.0
1771965298.5762632,282576.75,707808.0625,708335.75,708357.125,708221.25,708247.625,708593.8125,708946.0625,0.0
1771965298.57631,282631.125,707721.6875,708249.1875,708270.75,708134.5,708161.125,708507.5,708859.6875,0.0
1771965298.5763192,282575.25,707967.375,708494.875,708516.25,708379.8125,708406.5625,708752.9375,709105.3125,0.0
1771965298.5763261,282524.53125,708091.3125,708618.625,708640.1875,708503.8125,708530.1875,708877.0,709229.3125,0.0
1771965298.5838196,282562.71875,707856.0,708382.9375,708404.6875,708268.3125,708294.875,708641.375,708993.625,0.0
1771965298.5839248,282635.40625,707706.6875,708233.625,708255.5625,708118.875,708145.875,708492.3125,708844.3125,0.0
1771965298.5861886,282603.75,707921.0,708448.3125,708470.0625,708333.625,708360.4375,708706.6875,709059.125,0.0
1771965298.5887012,282539.46875,708101.75,708629.25,708650.75,708514.5,708541.1875,708887.5,709239.5625,0.0
1771965298.5912037,282554.21875,707909.9375,708437.25,708459.0625,708322.625,708349.1875,708695.6875,709047.4375,0.0
1771965298.593912,282623.15625,707704.8125,708232.125,708254.0625,708117.3125,708143.6875,708490.5,708842.3125,0.0
1771965298.595929,282604.5625,707873.8125,708401.3125,708423.0,708286.6875,708312.875,708659.5625,709011.5,0.0
1771965298.5989275,282549.75,708103.3125,708630.0625,708652.5,708515.75,708541.9375,708889.0,709240.625,0.0
1771965298.6012497,282542.25,707963.8125,708490.6875,708512.9375,708375.8125,708402.4375,708749.375,709101.25,0.0
1771965298.6012964,282613.875,707718.0625,708245.375,708267.25,708130.1875,708156.9375,708503.5625,708855.6875,0.0
1771965298.603485,282620.375,707826.9375,708354.4375,708376.25,708239.4375,708265.6875,708613.0,708964.625,0.0
1771965298.6372037,282556.8125,708085.0,708612.5625,708633.9375,708497.375,708523.625,708871.125,709222.5,0.0
1771965298.637252,282543.3125,708014.4375,708542.125,708563.8125,708426.9375,708453.125,708800.6875,709152.125,0.0
1771965298.6401033,282620.3125,707748.5,708276.3125,708297.875,708161.0625,708187.4375,708534.75,708886.3125,0.0
1771965298.642491,282639.0625,707790.0,708317.625,708338.6875,708202.25,708228.9375,708575.75,708927.875,0.0
1771965298.6447213,282567.09375,708057.0625,708584.375,708606.0625,708469.4375,708496.0625,708843.0625,709194.875,0.0
1771965298.644766,282542.5,708053.125,708580.625,708601.8125,708465.3125,708491.875,708839.1875,709191.0,0.0
1771965298.647356,282596.34375,707781.5,708309.0,708330.3125,708193.9375,708220.6875,708567.4375,708919.125,0.0
1771965298.649606,282633.875,707757.125,708284.625,708306.0,708169.375,708196.4375,708543.25,708894.625,0.0
1771965298.6521175,282585.78125,708023.1875,708550.625,708572.4375,708435.375,708462.375,708809.0,709161.0625,0.0
1771965298.6546865,282533.75,708087.3125,708614.625,708636.3125,708499.625,708526.125,708873.0,709225.0,0.0
1771965298.6575203,282579.4375,707828.75,708355.8125,708377.6875,708241.25,708267.6875,708614.6875,708966.3125,0.0
1771965298.6596127,282636.84375,707733.4375,708260.5,708282.75,708145.6875,708172.25,708519.3125,708871.1875,0.0
1771965298.6737356,282596.25,707979.5625,708506.625,708528.6875,708391.625,708418.4375,708765.25,709117.4375,0.0
1771965298.6785796,282532.9375,708109.375,708636.3125,708658.1875,708521.375,708548.1875,708895.0625,709247.25,0.0
1771965298.678652,282574.6875,707881.5,708408.5625,708430.375,708293.5625,708320.3125,708667.125,709019.0625,0.0
1771965298.6812165,282639.0625,707722.8125,708249.8125,708271.75,708135.1875,708161.6875,708508.6875,708860.375,0.0
1771965298.683471,282613.59375,707929.25,708456.375,708477.8125,708341.5,708367.9375,708714.9375,709066.375,0.0
1771965298.6861248,282540.09375,708119.1875,708646.375,708668.25,708531.625,708557.8125,708905.4375,709256.9375,0.0
1771965298.6861696,282553.40625,707933.5,708460.5625,708482.75,708345.9375,708372.3125,708719.6875,709070.875,0.0
1771965298.6884816,282617.25,707722.6875,708250.1875,708272.125,708135.0625,708161.75,708508.5,708860.5,0.0
1771965298.6885288,282598.125,707882.625,708410.0625,708431.6875,708294.875,708321.8125,708668.375,709020.4375,0.0
1771965298.692258,282532.59375,708113.125,708639.5625,708661.5625,708525.1875,708551.75,708898.3125,709250.3125,0.0
1771965298.7423227,282534.75,707983.875,708510.375,708532.125,708395.5,708422.0625,708769.0,709120.8125,0.0
1771965298.742388,282605.90625,707736.125,708262.875,708284.6875,708148.0625,708174.3125,708521.4375,708873.1875,0.0
1771965298.744609,282619.125,707838.0,708365.0625,708386.625,708250.1875,708276.75,708623.375,708975.375,0.0
1771965298.7446237,282549.21875,708099.1875,708626.625,708648.25,708511.4375,708537.875,708885.0625,709237.0,0.0
1771965298.747442,282528.21875,708033.375,708560.875,708582.625,708445.8125,708471.75,708819.0625,709171.0625,0.0
1771965298.7474575,282602.0625,707764.8125,708292.1875,708313.5625,708177.25,708203.4375,708550.3125,708902.4375,0.0
1771965298.7510235,282634.34375,707800.75,708328.0625,708349.5,708213.0625,708239.3125,708586.4375,708938.4375,0.0
1771965298.751039,282574.875,708070.375,708597.5625,708619.1875,708482.5,708508.875,708856.375,709208.4375,0.0
1771965298.7510464,282541.53125,708073.6875,708600.9375,708622.8125,708485.75,708512.4375,708859.5,709212.0625,0.0
1771965298.7510524,282600.625,707801.5625,708328.625,708350.5,708213.375,708240.1875,708586.875,708939.3125,0.0
1771965298.7559893,282625.21875,707765.3125,708292.125,708314.1875,708177.125,708204.0,708550.625,708902.9375,0.0
1771965298.7560036,282570.84375,708030.0,708557.3125,708578.4375,708441.875,708468.8125,708815.8125,709167.5,0.0
1771965298.78362,282524.1875,708108.75,708635.875,708656.875,708520.75,708547.5,708894.375,709246.1875,0.0
1771965298.7836852,282572.71875,707851.4375,708378.375,708399.5,708263.25,708290.0625,708636.875,708988.625,0.0
1771965298.789811,282617.78125,707747.1875,708274.3125,708295.625,708159.4375,708185.9375,708532.625,708884.0625,0.0
1771965298.7925992,282579.875,707989.5625,708516.6875,708538.1875,708402.1875,708428.3125,708775.25,709126.75,0.0
1771965298.7951045,282520.4375,708127.5,708654.5,708676.125,708539.6875,708566.0625,708913.3125,709264.6875,0.0
1771965298.7972682,282567.5625,707904.4375,708431.6875,708453.4375,708316.625,708343.0,708690.375,709041.8125,0.0
1771965298.8001044,282631.84375,707737.6875,708265.1875,708286.6875,708150.0625,708176.625,708524.0625,708875.4375,0.0
1771965298.8048263,282599.8125,707940.375,708467.8125,708489.1875,708352.625,708379.375,708726.375,709078.125,0.0
1771965298.8048923,282531.96875,708133.9375,708661.125,708682.9375,708545.9375,708572.625,708919.6875,709271.6875,0.0
1771965298.807844,282554.75,707955.75,708483.0,708505.0625,708368.1875,708394.6875,708741.75,709093.375,0.0
1771965298.8104117,282625.21875,707737.4375,708264.875,708286.5625,708149.9375,708176.6875,708523.3125,708875.0,0.0
1771965298.812697,282621.28125,707889.875,708417.0,708438.6875,708301.875,708328.875,708675.4375,709027.5625,0.0
1771965298.8151424,282542.96875,708126.25,708653.25,708674.9375,708538.1875,708565.375,708911.8125,709264.0,0.0
1771965298.8151932,282532.3125,708002.8125,708529.9375,708551.75,708415.0,708441.8125,708788.25,709140.4375,0.0
1771965298.8174648,282603.65625,707752.625,708279.9375,708301.6875,708164.875,708191.5625,708538.0625,708890.375,0.0
1771965298.8175137,282623.4375,707843.375,708370.4375,708392.375,708255.5625,708282.375,708628.9375,708981.375,0.0
1771965298.8203783,282543.84375,708104.4375,708631.8125,708653.875,708516.875,708543.875,708890.1875,709242.3125,0.0
1771965298.8224485,282531.15625,708050.25,708577.6875,708599.75,708462.6875,708489.6875,708836.1875,709188.0625,0.0
1771965298.822494,282597.84375,707782.6875,708310.1875,708332.0,708195.5,708222.3125,708568.75,708921.0,0.0
1771965298.8252354,282630.125,707809.0,708336.5,708357.9375,708221.25,708248.0625,708594.75,708947.0625,0.0
1771965298.8275137,282563.0,708076.375,708603.8125,708625.5,708488.3125,708515.5625,708862.0,709214.4375,0.0
1771965298.8312156,282532.9375,708092.9375,708620.0,708641.875,708504.75,708532.375,708878.75,709230.8125,0.0
1771965298.8312862,282593.75,707825.0625,708352.1875,708373.8125,708237.0625,708264.0625,708610.5625,708962.4375,0.0
1771965298.8677032,282630.5,707778.3125,708305.25,708326.75,708190.1875,708216.6875,708563.5,708915.1875,0.0
1771965298.8677752,282573.53125,708038.375,708566.0625,708587.0625,708450.75,708477.125,708824.125,709176.0625,0.0
1771965298.8701236,282524.09375,708123.5625,708651.0,708672.4375,708535.875,708562.5,708909.5625,709261.5,0.0
1771965298.8701952,282567.0,707870.375,708397.625,708419.625,708282.625,708309.5625,708656.375,709008.125,0.0
1771965298.8725386,282613.40625,707756.0625,708283.5625,708305.1875,708168.375,708195.5,708542.3125,708894.0,0.0
1771965298.880048,282579.09375,707994.125,708521.8125,708543.0,708406.3125,708433.125,708780.4375,709132.0,0.0
1771965298.8826714,282519.0,708140.25,708667.25,708689.0625,708552.125,708579.0625,708926.1875,709278.0,0.0
1771965298.885324,282557.96875,707923.0625,708449.9375,708472.125,708335.125,708362.25,708708.9375,709060.6875,0.0
1771965298.8873413,282636.9375,707750.875,708278.375,708300.1875,708163.5,708190.1875,708537.125,708888.8125,0.0
1771965298.8901048,282599.375,707945.875,708473.375,708494.875,708358.375,708385.1875,708731.9375,709083.75,0.0
1771965298.892816,282537.25,708147.75,708674.9375,708696.5,708560.0,708586.75,708933.6875,709285.4375,0.0
1771965298.894628,282552.4375,707974.4375,708501.9375,708523.5,708387.0625,708413.625,708760.6875,709112.4375,0.0
1771965298.903907,282620.3125,707753.875,708281.3125,708302.9375,708166.4375,708192.875,708540.25,708891.875,0.0
1771965298.9085464,282611.09375,707898.5625,708426.25,708447.625,708311.25,708337.75,708685.1875,709037.0,0.0
1771965298.9113438,282542.4375,708140.0625,708667.1875,708689.1875,708552.1875,708578.9375,708926.125,709278.0,0.0
1771965298.915942,282536.78125,708028.1875,708555.3125,708577.25,708440.4375,708467.25,708814.1875,709166.25,0.0
1771965298.920256,282600.1875,707772.75,708300.375,708322.1875,708185.0,708212.3125,708559.1875,708911.0,0.0
1771965298.9203284,282608.6875,707857.9375,708385.625,708407.5625,708270.25,708297.25,708644.125,708996.125,0.0
1771965298.9203484,282541.53125,708121.25,708648.875,708670.875,708533.625,708560.25,708907.125,709259.3125,0.0
1771965298.9221697,282515.4375,708071.0,708598.6875,708620.5,708483.5625,708510.25,708857.25,709209.1875,0.0
1771965298.9253235,282592.03125,707801.8125,708328.9375,708350.4375,708214.25,708241.0625,708587.6875,708939.4375,0.0
1771965298.9284513,282619.75,707819.6875,708346.75,708368.1875,708232.6875,708258.875,708605.4375,708957.125,0.0
1771965298.928546,282558.59375,708089.6875,708616.875,708638.375,708502.4375,708529.0625,708875.875,709227.5,0.0
1771965298.9296064,282518.65625,708112.0625,708639.625,708661.3125,708524.9375,708551.5,708898.3125,709250.0625,0.0
1771965298.932645,282578.1875,707841.875,708369.4375,708391.0,708254.3125,708281.1875,708628.125,708979.3125,0.0
1771965298.936159,282619.125,707789.9375,708317.8125,708339.4375,708202.625,708229.375,708576.375,708927.75,0.0
1771965298.9811592,282567.46875,708050.125,708577.75,708599.75,708462.6875,708489.375,708836.5,709188.25,0.0
1771965298.9811988,282520.78125,708143.4375,708671.1875,708693.125,708555.9375,708582.625,708929.75,709281.5625,0.0
1771965298.9837089,282563.71875,707893.4375,708421.25,708442.75,708305.875,708332.875,708679.8125,709031.625,0.0
1771965298.983724,282619.40625,707769.5625,708297.25,708319.0625,708181.6875,708209.0625,708555.8125,708907.8125,0.0
1771965298.988674,282579.53125,708001.625,708528.875,708550.9375,708413.8125,708440.8125,708787.8125,709139.8125,0.0
1771965298.9908516,282526.875,708155.3125,708683.0,708704.625,708567.5,708594.25,708941.3125,709293.1875,0.0
1771965298.9940891,282561.46875,707943.6875,708471.5,708493.1875,708355.9375,708383.0625,708729.75,709081.3125,0.0
1771965298.9985547,282618.6875,707763.0,708290.5,708312.0,708175.1875,708202.25,708548.5625,708900.625,0.0
1771965299.00127,282593.46875,707954.5,708481.6875,708503.5,708366.6875,708393.6875,708740.3125,709092.0625,0.0
1771965299.0038548,282530.4375,708161.75,708689.1875,708711.5625,708574.1875,708600.9375,708947.6875,709299.5,0.0
1771965299.0059054,282541.53125,707996.875,708524.25,708546.75,708409.3125,708436.3125,708783.0,709134.625,0.0
1771965299.0084136,282602.6875,707768.375,708296.0,708317.8125,708181.0625,708207.8125,708553.9375,708906.0625,0.0
1771965299.014943,282602.25,707906.8125,708434.4375,708455.9375,708319.3125,708345.9375,708692.5,709044.6875,0.0
1771965299.0247717,282539.21875,708153.375,708680.875,708702.5625,708565.625,708592.25,708939.0625,709291.3125,0.0
1771965299.024804,282533.5625,708050.4375,708577.75,708599.625,708462.4375,708489.8125,708836.0625,709188.3125,0.0
1771965299.0275707,282608.125,707791.1875,708318.5625,708340.0625,708203.0625,708230.6875,708576.8125,708928.8125,0.0
1771965299.0299428,282621.46875,707865.9375,708393.5,708415.4375,708278.5625,708305.375,708651.75,709003.5625,0.0
1771965299.0324128,282551.8125,708132.5625,708659.6875,708681.6875,708544.6875,708571.625,708917.875,709270.0625,0.0
1771965299.0324783,282529.28125,708094.4375,708621.5,708643.375,708506.375,708533.6875,708880.0625,709231.6875,0.0
1771965299.034907,282602.3125,707823.8125,708351.0625,708372.5,708235.875,708262.8125,708609.4375,708961.5,0.0
1771965299.0384853,282626.5625,707830.9375,708358.3125,708379.625,708243.3125,708269.875,708616.3125,708968.5,0.0
1771965299.0385215,282563.25,708100.1875,708627.5,708649.1875,708512.4375,708539.25,708885.8125,709237.9375,0.0
1771965299.0385282,282524.625,708131.9375,708659.0625,708681.25,708543.875,708570.8125,708917.625,709269.875,0.0
1771965299.038534,282578.28125,707864.0625,708391.125,708413.0,708276.1875,708302.6875,708649.6875,709001.6875,0.0
1771965299.0408475,282614.03125,707801.4375,708328.25,708350.25,708213.375,708240.25,708587.1875,708939.0625,0.0
1771965299.0433855,282563.96875,708059.125,708586.1875,708608.0,708471.125,708497.9375,708845.0,709196.9375,0.0
1771965299.0483663,282510.0625,708158.625,708686.25,708707.9375,708571.1875,708597.375,708944.875,709296.6875,0.0
1771965299.0509703,282560.21875,707912.75,708440.4375,708462.1875,708325.5625,708352.0,708699.0,709050.8125,0.0
1771965299.053505,282619.3125,707785.75,708313.375,708334.9375,708198.4375,708225.25,708571.875,708923.8125,0.0
1771965299.0535219,282576.21875,708015.125,708542.1875,708564.25,708427.3125,708454.125,708800.9375,709153.3125,0.0
1771965299.0608428,282512.21875,708176.0,708703.125,708724.6875,708588.0,708614.8125,708961.5,709313.9375,0.0
1771965299.0904293,282544.75,707965.4375,708492.9375,708514.8125,708378.0625,708404.5,708751.4375,709103.25,0.0
1771965299.0905,282611.28125,707779.125,708306.625,708328.4375,708191.4375,708218.125,708565.0625,708916.8125,0.0
1771965299.0926273,282599.90625,707961.4375,708489.0625,708510.875,708373.75,708400.375,708747.5625,709099.5625,0.0
1771965299.0927002,282535.8125,708175.5625,708702.875,708724.75,708588.0625,708614.1875,708961.3125,709313.6875,0.0
1771965299.0997744,282545.65625,708017.8125,708545.25,708566.9375,708430.5,708456.8125,708803.625,709156.0,0.0
1771965299.0998187,282612.59375,707785.375,708312.875,708334.5,708198.0,708224.625,708571.1875,708923.5,0.0
1771965299.0998273,282611.0,707915.1875,708442.25,708464.3125,708327.625,708354.0,708700.8125,709053.25,0.0
1771965299.0998335,282544.9375,708162.1875,708689.375,708711.625,708574.625,708601.125,708948.3125,709300.4375,0.0
1771965299.1071963,282531.0625,708065.3125,708593.0625,708614.5,708477.75,708504.0,708851.125,709202.9375,0.0
1771965299.1097648,282605.28125,707802.8125,708330.5625,708351.875,708215.5625,708241.8125,708588.625,708940.5,0.0
1771965299.112779,282616.71875,707869.25,708396.5625,708418.25,708281.375,708307.6875,708654.3125,709006.75,0.0
1771965299.1149497,282554.0625,708138.4375,708665.9375,708687.5,708550.9375,708577.25,708923.9375,709276.4375,0.0
1771965299.1173322,282531.34375,708111.1875,708638.75,708660.1875,708523.75,708550.625,708896.8125,709249.125,0.0
1771965299.1201057,282597.9375,707838.125,708366.0,708387.25,708251.0,708277.3125,708623.9375,708976.0625,0.0
1771965299.1475096,282628.34375,707835.0,708363.0,708384.125,708248.0625,708274.3125,708621.125,708973.4375,0.0
1771965299.1509755,282575.5,708103.625,708631.0625,708652.625,708516.25,708542.625,708889.8125,709242.25,0.0
1771965299.1510172,282539.84375,708145.4375,708672.625,708694.375,708558.0,708584.5625,708931.1875,709283.75,0.0
1771965299.1510265,282589.09375,707876.9375,708404.5,708426.3125,708289.6875,708316.25,708662.625,709015.25,0.0
1771965299.1538842,282638.53125,707806.3125,708334.0625,708355.9375,708219.1875,708245.8125,708592.1875,708944.5,0.0
1771965299.1563077,282594.28125,708061.25,708588.6875,708610.5625,708473.6875,708500.6875,708847.1875,709199.4375,0.0
1771965299.1613927,282534.375,708169.75,708697.0625,708718.9375,708582.1875,708608.875,708955.625,709307.875,0.0
1771965299.163342,282572.90625,707926.25,708453.4375,708475.6875,708338.5,708365.1875,708712.25,709064.3125,0.0
1771965299.1662195,282640.0625,707787.75,708315.3125,708337.375,708200.125,708226.875,708573.75,708926.0,0.0
1771965299.1688669,282602.0625,708013.0625,708540.4375,708562.5,708425.4375,708451.875,708799.125,709151.4375,0.0
1771965299.1712952,282536.25,708181.1875,708708.25,708730.5,708593.625,708620.0,708967.125,709319.25,0.0
1771965299.1737182,282569.34375,707978.9375,708506.1875,708528.5,708391.125,708417.9375,708764.5625,709116.75,0.0
1771965299.1763632,282645.25,707787.4375,708315.0,708337.375,708200.0625,708226.6875,708573.375,708925.6875,0.0
1771965299.178502,282622.71875,707966.75,708494.375,708516.25,708379.0,708405.9375,708752.75,709104.9375,0.0
1771965299.1785464,282552.34375,708182.875,708710.1875,708732.125,708595.125,708622.0625,708968.6875,709320.75,0.0
1771965299.181416,282554.3125,708032.5,708559.625,708581.4375,708444.8125,708471.75,708818.125,709170.375,0.0
1771965299.1889267,282631.90625,707796.75,708323.75,708346.1875,708209.125,708236.1875,708582.3125,708934.4375,0.0
1771965299.191482,282633.09375,707918.5,708445.8125,708468.375,708330.9375,708358.0,708704.3125,709056.375,0.0
1771965299.1915536,282554.6875,708169.125,708696.625,708718.5,708581.5625,708608.6875,708954.5625,709307.0,0.0
1771965299.1951113,282544.3125,708080.75,708607.9375,708629.75,708493.0,708520.1875,708866.3125,709218.625,0.0
1771965299.2277937,282613.15625,707818.625,708345.6875,708367.125,708230.8125,708257.875,708603.875,708956.25,0.0
1771965299.227842,282633.71875,707877.375,708404.4375,708425.875,708289.375,708316.1875,708662.625,709014.875,0.0
1771965299.2301495,282571.9375,708144.625,708671.75,708693.5,708556.3125,708583.4375,708930.125,709281.9375,0.0
1771965299.232809,282542.5,708124.25,708651.1875,708673.5625,708536.125,708563.125,708909.6875,709261.8125,0.0
1771965299.240925,282603.9375,707852.75,708380.125,708402.4375,708265.1875,708292.1875,708638.75,708990.5625,0.0
1771965299.248361,282635.125,707841.625,708369.0,708391.375,708254.1875,708281.0625,708627.5625,708979.5625,0.0
1771965299.2509422,282573.53125,708107.75,708635.1875,708657.25,708520.1875,708546.9375,708893.625,709245.75,0.0
1771965299.2535064,282532.84375,708159.5625,708686.9375,708708.6875,708572.0,708598.5,708945.625,709297.625,0.0
1771965299.255864,282585.34375,707897.75,708425.1875,708446.8125,708310.1875,708336.9375,708683.75,709035.375,0.0
1771965299.2590208,282637.28125,707817.5625,708345.0625,708366.6875,708229.875,708256.375,708603.4375,708955.25,0.0
1771965299.2590888,282588.5625,708067.6875,708595.3125,708617.3125,708480.25,708507.0,708853.75,709205.6875,0.0
1771965299.261566,282527.75,708183.25,708710.5625,708732.1875,708595.75,708622.5,708968.6875,709320.9375,0.0
1771965299.2616396,282563.71875,707945.9375,708473.375,708495.1875,708358.4375,708384.8125,708731.3125,709083.4375,0.0
1771965299.263736,282618.6875,707803.4375,708330.9375,708352.5625,708216.25,708242.6875,708589.5,708940.875,0.0
1771965299.266304,282591.34375,708020.875,708548.0,708569.8125,708433.6875,708460.1875,708806.5625,709158.375,0.0
1771965299.2663755,282532.84375,708196.4375,708723.6875,708745.5,708609.0,708635.375,708982.1875,709334.0625,0.0
1771965299.26878,282548.6875,708001.4375,708528.875,708550.625,708414.0625,708440.25,708787.1875,709139.25,0.0
1771965299.2715845,282622.0,707801.375,708328.9375,708351.0625,708214.5,708240.375,708587.5,708939.8125,0.0
1771965299.2772331,282610.46875,707973.75,708501.25,708523.625,708386.6875,708412.9375,708760.0,709112.375,0.0
1771965299.27728,282548.5,708198.0,708725.75,708747.8125,708610.75,708637.0625,708983.875,709336.25,0.0
1771965299.2801282,282549.9375,708053.5,708581.0625,708603.0,708466.125,708492.3125,708839.1875,709191.3125,0.0
1771965299.3111308,282621.625,707813.375,708340.5625,708362.5625,708225.6875,708252.25,708598.875,708951.125,0.0
1771965299.3111744,282624.3125,707932.1875,708459.9375,708481.5625,708344.625,708371.25,708718.0625,709070.3125,0.0
1771965299.3139088,282557.28125,708187.0,708714.375,708736.3125,708599.0,708626.125,708973.0625,709324.75,0.0
1771965299.3139791,282539.125,708104.375,708631.9375,708653.9375,708517.0625,708543.875,708890.6875,709242.6875,0.0
1771965299.3175144,282610.46875,707839.625,708367.375,708389.25,708252.5,708279.1875,708625.875,708978.0625,0.0
1771965299.317586,282629.6875,707888.5625,708416.3125,708437.75,708301.4375,708327.375,708674.875,709026.625,0.0
1771965299.317606,282562.09375,708160.4375,708687.6875,708709.625,708572.9375,708599.25,708946.375,709298.5,0.0
1771965299.317623,282528.65625,708148.5625,708675.75,708697.75,708560.5,708587.4375,708934.6875,709286.4375,0.0
1771965299.320211,282598.5625,707875.6875,708403.5,708425.1875,708288.5625,708315.4375,708662.4375,709014.1875,0.0
1771965299.320296,282636.3125,707856.8125,708385.3125,708406.625,708270.0625,708296.5,708643.375,708995.125,0.0
1771965299.3242674,282570.40625,708122.0,708649.9375,708672.0,708534.6875,708561.0625,708908.5,709259.6875,0.0
1771965299.3325152,282532.6875,708178.375,708705.625,708727.8125,708590.75,708617.0,708964.1875,709315.75,0.0
1771965299.3325791,282577.75,707916.25,708443.5625,708465.3125,708328.3125,708355.0625,708701.875,709053.9375,0.0
1771965299.3386023,282631.84375,707830.6875,708358.1875,708379.9375,708243.0625,708269.5,708616.75,708968.5,0.0
1771965299.3386705,282589.375,708077.375,708605.4375,708627.3125,708490.1875,708516.875,708863.625,709215.875,0.0
1771965299.3736255,282531.4375,708203.8125,708731.5,708753.1875,708615.875,708642.9375,708989.5,709341.5625,0.0
1771965299.377364,282567.46875,707970.25,708498.125,708519.375,708382.9375,708409.4375,708756.125,709107.9375,0.0
1771965299.377436,282633.09375,707817.125,708345.4375,708366.6875,708230.0625,708256.4375,708603.375,708955.1875,0.0
1771965299.377456,282606.09375,708031.125,708559.1875,708580.375,708443.5625,708470.25,708817.1875,709168.9375,0.0
1771965299.3826845,282542.875,708212.3125,708739.6875,708761.5,708624.375,708651.4375,708997.875,709350.1875,0.0
1771965299.3827312,282571.03125,708023.375,708550.6875,708572.3125,708435.6875,708462.5625,708809.0625,709161.25,0.0
1771965299.3849585,282630.125,707816.9375,708344.1875,708366.0,708229.1875,708256.0,708602.875,708954.75,0.0
1771965299.390106,282615.75,707984.3125,708512.0,708533.625,708396.375,708423.5625,708770.625,709122.4375,0.0
1771965299.3926625,282547.15625,708211.8125,708739.3125,708761.0625,708623.625,708651.125,708997.75,709349.625,0.0
1771965299.3946724,282543.84375,708072.0,708599.6875,708621.5,708484.25,708511.8125,708858.0625,709210.1875,0.0
1771965299.3947136,282607.15625,707828.0,708355.875,708377.4375,708240.25,708267.4375,708613.625,708965.875,0.0
1771965299.397159,282618.40625,707936.125,708463.8125,708485.4375,708348.375,708375.625,708721.5625,709073.875,0.0
1771965299.4060895,282550.46875,708194.125,708721.8125,708743.375,708606.6875,708633.6875,708980.0,709332.1875,0.0
1771965299.4084604,282526.34375,708123.125,708650.75,708672.1875,708535.375,708562.5,708909.125,709260.9375,0.0
1771965299.4110785,282597.9375,707859.125,708386.375,708408.1875,708271.125,708298.5,708645.0,708996.75,0.0
1771965299.4135692,282607.59375,707898.4375,708426.125,708447.5,708310.5625,708337.625,708684.0,709035.875,0.0
1771965299.4136205,282546.625,708168.3125,708695.8125,708717.1875,708580.3125,708607.125,708953.625,709305.8125,0.0
1771965299.4159667,282519.28125,708164.1875,708691.625,708713.125,708576.375,708603.1875,708949.875,709302.0,0.0
1771965299.4192607,282576.3125,707890.125,708417.8125,708438.9375,708302.5,708329.3125,708675.75,709027.6875,0.0
1771965299.42137,282618.40625,707865.3125,708392.8125,708414.375,708277.4375,708304.375,708650.625,709002.9375,0.0
1771965299.4299784,282563.25,708131.4375,708658.6875,708680.3125,708543.6875,708570.375,708916.8125,709269.375,0.0
1771965299.430026,282520.0625,708199.875,708727.4375,708749.1875,708612.5625,708639.5,708985.625,709338.0,0.0
1771965299.4353108,282578.46875,707939.875,708467.875,708489.1875,708352.375,708379.375,708725.9375,709077.5625,0.0
1771965299.4377096,282624.3125,707840.0625,708368.1875,708389.375,708253.125,708279.6875,708626.25,708978.125,0.0
1771965299.441223,282580.5,708085.75,708613.25,708635.0625,708498.5625,708525.5625,708871.9375,709224.125,0.0
1771965299.4784465,282525.96875,708220.9375,708748.25,708770.4375,708633.3125,708660.5625,709007.1875,709359.375,0.0
1771965299.4846191,282559.21875,707992.0625,708520.0,708541.5,708404.5,708431.875,708778.25,709130.125,0.0
1771965299.4846363,282618.25,707830.5,708358.625,708380.125,708243.0625,708270.3125,708616.6875,708968.6875,0.0
1771965299.4873343,282586.9375,708036.5,708564.375,708586.125,708448.5,708475.75,708822.375,709174.5625,0.0
1771965299.4897327,282520.96875,708225.625,708753.625,708775.4375,708637.6875,708664.875,709011.5625,709363.5625,0.0
1771965299.4928513,282546.8125,708040.375,708568.0625,708589.9375,708452.6875,708479.5,708826.25,709178.25,0.0
1771965299.4948516,282611.34375,707827.5,708355.25,708376.6875,708240.0,708267.1875,708613.4375,708965.375,0.0
1771965299.4977646,282600.625,707987.8125,708515.375,708537.125,708400.0625,708427.375,708773.6875,709125.5625,0.0
1771965299.4999626,282528.125,708222.9375,708750.8125,708772.3125,708635.6875,708662.625,709008.875,709361.1875,0.0
1771965299.5027902,282531.25,708096.4375,708624.375,708645.75,708509.3125,708536.125,708882.375,709234.625,0.0
1771965299.5049715,282601.6875,707846.0625,708374.125,708395.3125,708258.6875,708285.75,708632.4375,708984.375,0.0
1771965299.5072,282603.65625,707946.0,708473.5625,708495.1875,708358.4375,708385.3125,708731.9375,709084.0,0.0
1771965299.5247307,282536.875,708204.9375,708732.5625,708754.0625,708617.6875,708644.3125,708990.9375,709343.3125,0.0
1771965299.5247662,282528.5625,708144.1875,708672.0,708693.625,708556.875,708583.6875,708930.25,709282.5625,0.0
1771965299.5273488,282587.65625,707876.8125,708404.75,708426.3125,708289.375,708316.0625,708662.875,709014.375,0.0
1771965299.5328376,282604.75,707908.125,708436.4375,708457.4375,708320.625,708347.4375,708694.1875,709045.5625,0.0
1771965299.537582,282545.1875,708177.875,708705.8125,708727.375,708590.375,708617.75,708963.9375,709316.0,0.0
1771965299.53977,282515.0625,708183.75,708711.625,708733.4375,708596.3125,708623.9375,708970.0,709322.1875,0.0
1771965299.5398128,282569.34375,707913.1875,708440.875,708462.875,708325.9375,708353.0,708699.4375,709051.375,0.0
1771965299.5425875,282616.71875,707877.625,708405.6875,708427.125,708290.25,708317.25,708664.0,709016.0625,0.0
1771965299.5447304,282565.9375,708139.0,708666.9375,708688.4375,708551.25,708578.4375,708925.125,709277.3125,0.0
1771965299.5476766,282511.84375,708214.875,708742.9375,708764.5625,708627.3125,708654.25,709001.125,709353.3125,0.0
1771965299.5550313,282560.75,707960.8125,708488.8125,708510.5625,708373.5625,708400.5,708747.375,709099.0,0.0
1771965299.555097,282601.53125,707855.5625,708383.6875,708405.125,708268.0625,708295.1875,708641.875,708993.4375,0.0
1771965299.557821,282567.1875,708098.1875,708626.625,708647.8125,708510.875,708537.625,708884.625,709236.1875,0.0
1771965299.5578914,282499.6875,708237.5625,708765.625,708787.1875,708650.0,708676.75,709024.125,709375.625,0.0
1771965299.5602932,282523.03125,708011.3125,708539.5,708560.875,708424.0,708450.75,708797.625,709149.25,0.0
1771965299.562506,282597.21875,707845.6875,708374.5,708395.5625,708258.6875,708285.625,708632.125,708983.75,0.0
1771965299.5625796,282570.59375,708047.875,708576.0,708597.6875,708460.6875,708487.9375,708834.4375,709186.0,0.0
1771965299.5652044,282505.59375,708244.9375,708772.6875,708794.6875,708657.4375,708684.375,709031.1875,709382.625,0.0
1771965299.5702665,282521.0625,708065.8125,708593.8125,708615.75,708478.5625,708505.0625,708852.4375,709203.8125,0.0
1771965299.5721688,282592.21875,707848.25,708376.1875,708398.25,708260.9375,708288.0,708634.75,708986.375,0.0
1771965299.5746684,282585.59375,708003.6875,708531.9375,708553.8125,708416.5625,708443.75,708790.3125,709142.0,0.0
1771965299.574686,282518.90625,708243.0625,708771.5,708793.0,708656.1875,708682.9375,709029.9375,709381.5625,0.0
1771965299.61282,282514.09375,708119.6875,708647.625,708669.125,708532.1875,708559.25,708905.8125,709257.625,0.0
1771965299.6161768,282584.96875,707864.875,708392.6875,708414.25,708277.75,708305.0625,708651.25,709002.9375,0.0
1771965299.6162455,282589.625,707957.0,708485.25,708507.25,708370.1875,708397.25,708743.8125,709095.625,0.0
1771965299.6162755,282522.5,708217.8125,708745.875,708767.9375,708630.6875,708657.25,709004.625,709356.1875,0.0
1771965299.621374,282502.90625,708161.75,708689.625,708711.625,708574.75,708601.125,708948.0,709300.125,0.0
1771965299.6235929,282566.21875,707891.25,708418.8125,708440.5625,708304.0,708330.375,708677.125,709029.1875,0.0
1771965299.626414,282601.6875,707917.25,708444.625,708466.375,708329.75,708356.3125,708703.0625,709054.875,0.0
1771965299.6288967,282544.75,708185.75,708713.125,708734.875,708597.875,708624.375,708971.5,709323.375,0.0
1771965299.6309245,282493.0625,708197.6875,708725.375,708747.3125,708610.125,708636.6875,708984.0625,709335.625,0.0
1771965299.6336806,282557.1875,707927.875,708455.375,708477.375,708340.3125,708367.3125,708714.125,709065.875,0.0
1771965299.6337333,282597.59375,707884.4375,708412.125,708433.8125,708296.6875,708324.0625,708670.6875,709022.5625,0.0
1771965299.6365087,282546.8125,708145.0625,708672.625,708693.9375,708557.3125,708584.0625,708931.0,709282.75,0.0
1771965299.6390193,282493.34375,708228.375,708755.6875,708777.4375,708640.625,708667.375,709014.5625,709366.0,0.0
1771965299.6409729,282543.3125,707976.1875,708503.9375,708525.6875,708388.5,708415.3125,708762.9375,709113.75,0.0
1771965299.6438696,282597.78125,707863.125,708390.9375,708412.9375,708275.6875,708302.6875,708649.6875,709001.0625,0.0
1771965299.6440506,282561.75,708100.8125,708628.375,708650.4375,708513.4375,708540.4375,708886.875,709239.0625,0.0
1771965299.648811,282498.875,708247.0625,708774.625,708796.5,708659.6875,708686.75,709033.0625,709385.1875,0.0
1771965299.6509619,282522.75,708029.1875,708556.875,708578.4375,708441.4375,708468.625,708815.0625,709166.875,0.0
1771965299.6565437,282596.53125,707856.375,708383.9375,708405.9375,708268.5,708295.8125,708642.625,708994.4375,0.0
1771965299.6589992,282569.6875,708052.625,708580.125,708602.125,708464.875,708492.0625,708838.5,709190.6875,0.0
1771965299.6590676,282505.59375,708254.3125,708782.25,708803.8125,708666.625,708693.8125,709040.1875,709392.5625,0.0
1771965299.661389,282530.0,708083.6875,708611.5,708632.9375,708495.875,708523.25,708869.625,709221.875,0.0
1771965299.6676235,282603.65625,707860.4375,708388.3125,708409.875,708273.0625,708299.875,708646.25,708998.625,0.0
1771965299.7041523,282593.9375,708006.0,708533.6875,708555.625,708418.375,708445.375,708792.1875,709144.375,0.0
1771965299.7042215,282518.65625,708244.625,708772.25,708794.0625,708656.75,708684.0625,709031.0625,709382.8125,0.0
1771965299.742184,282502.8125,708129.5625,708657.0625,708678.8125,708541.375,708568.8125,708915.75,709267.4375,0.0
1771965299.7422383,282573.09375,707874.9375,708402.5625,708423.75,708286.6875,708314.0,708661.3125,709012.6875,0.0
1771965299.744931,282585.15625,707962.0625,708489.4375,708511.0625,708374.0,708400.875,708748.1875,709099.5625,0.0
1771965299.7473164,282511.65625,708226.5,708753.8125,708775.8125,708639.125,708665.6875,709012.75,709364.5,0.0
1771965299.7498255,282495.03125,708178.25,708705.75,708727.6875,708590.625,708617.0,708964.1875,709316.0,0.0
1771965299.752644,282562.90625,707905.5,708433.125,708454.375,708317.9375,708344.1875,708691.5,709043.4375,0.0
1771965299.7549984,282605.0,707921.25,708449.125,708469.875,708333.5,708360.1875,708707.5,709059.0,0.0
1771965299.760183,282541.1875,708191.8125,708719.875,708741.3125,708604.25,708631.25,708978.25,709330.0625,0.0
1771965299.765303,282501.84375,708216.5,708744.6875,708766.4375,708629.375,708655.9375,709003.0,709354.8125,0.0
1771965299.7677205,282550.5625,707947.125,708475.5625,708497.375,708360.0,708386.875,708733.6875,709085.625,0.0
1771965299.7677948,282587.5625,707891.5,708419.5,708441.1875,708304.1875,708331.1875,708678.125,709029.9375,0.0
1771965299.7714107,282538.21875,708151.375,708678.875,708700.5625,708563.625,708590.1875,708937.75,709289.5625,0.0
1771965299.7714827,282498.34375,708242.6875,708770.1875,708791.8125,708654.875,708681.375,709028.9375,709380.5,0.0
1771965299.7715075,282529.90625,707994.0625,708521.8125,708543.6875,708406.3125,708433.3125,708780.625,709132.1875,0.0
1771965299.7770615,282589.8125,707871.4375,708399.3125,708421.25,708283.75,708310.75,708657.6875,709009.25,0.0
1771965299.7771096,282559.6875,708106.8125,708634.75,708656.8125,708519.3125,708546.25,708893.125,709244.875,0.0
1771965299.7771182,282498.53125,708261.625,708789.3125,708811.0625,708673.6875,708700.8125,709047.8125,709399.5,0.0
1771965299.7771273,282536.0,708050.8125,708578.4375,708599.75,708462.375,708489.4375,708836.8125,709188.1875,0.0
1771965299.7771347,282615.5625,707872.0,708399.3125,708421.0625,708283.8125,708310.625,708658.0,709009.375,0.0
1771965299.7771409,282593.84375,708061.375,708588.875,708610.75,708473.6875,708500.375,708847.6875,709199.25,0.0
1771965299.8151453,282527.3125,708268.3125,708796.5,708818.1875,708681.5,708708.0625,709055.3125,709406.875,0.0
1771965299.8152149,282541.4375,708101.3125,708629.125,708650.8125,708514.1875,708540.6875,708887.9375,709239.3125,0.0
1771965299.8174837,282612.6875,707875.375,708402.875,708424.6875,708287.5625,708314.5,708661.75,709013.1875,0.0
1771965299.842748,282600.1875,708012.375,708539.875,708561.75,708425.0,708451.25,708798.8125,709150.25,0.0
1771965299.845147,282517.65625,708255.125,708782.1875,708804.3125,708667.25,708693.5625,709041.4375,709392.8125,0.0
1771965299.8523304,282516.40625,708149.9375,708677.1875,708699.0,708562.0625,708588.4375,708935.9375,709287.3125,0.0
1771965299.859047,282584.34375,707893.5625,708421.0625,708442.75,708305.4375,708332.0625,708679.625,709031.25,0.0
1771965299.8988304,282597.9375,707970.875,708498.0,708519.5625,708382.6875,708409.5,708756.9375,709108.5,0.0
1771965299.8988972,282533.3125,708236.875,708763.8125,708785.8125,708648.75,708675.5625,709022.5625,709374.3125,0.0
1771965299.8989096,282504.53125,708195.8125,708723.625,708745.5,708608.0,708634.9375,708982.0,709333.8125,0.0
1771965299.9008737,282572.03125,707922.625,708450.1875,708472.1875,708335.25,708361.75,708708.875,709060.75,0.0
1771965299.903474,282602.25,707929.0625,708456.75,708478.4375,708341.9375,708368.0625,708715.4375,709067.1875,0.0
1771965299.9083765,282535.09375,708200.6875,708728.4375,708749.875,708613.5625,708639.5,708987.0625,709338.75,0.0
1771965299.9109952,282503.34375,708233.1875,708760.5,708782.1875,708645.8125,708672.125,709019.375,709371.25,0.0
1771965299.9136508,282557.71875,707963.1875,708490.8125,708512.25,708375.625,708402.25,708749.375,709101.8125,0.0
1771965299.9157257,282608.21875,707901.75,708429.75,708451.1875,708314.5625,708341.125,708688.3125,709040.375,0.0
1771965299.9211423,282562.71875,708158.125,708685.625,708707.3125,708570.375,708596.75,708944.375,709296.0625,0.0
1771965299.9211564,282504.4375,708257.875,708785.375,708807.1875,708670.4375,708696.3125,709044.375,709396.0625,0.0
1771965299.923546,282548.5,708013.25,708540.875,708562.75,708425.6875,708452.3125,708799.625,709151.6875,0.0
1771965299.9324477,282615.28125,707885.0625,708412.75,708434.8125,708297.75,708324.25,708671.5,709023.3125,0.0
1771965299.9347565,282576.5,708112.625,708640.25,708661.9375,708524.75,708551.5625,708898.9375,709250.6875,0.0
1771965299.9396272,282507.09375,708275.5625,708803.0625,708824.8125,708687.9375,708714.5625,709062.0,709413.625,0.0
1771965299.9422524,282533.5625,708066.125,708593.6875,708615.5,708478.6875,708505.25,708852.8125,709204.4375,0.0
1771965299.947137,282615.65625,707882.0,708409.875,708431.5,708294.5625,708321.25,708668.4375,709020.25,0.0
1771965299.9471536,282588.90625,708068.5,708596.4375,708618.0,708480.9375,708507.75,708854.875,709206.875,0.0
1771965299.9497025,282502.625,708277.9375,708806.0625,708827.75,708690.6875,708717.375,709064.3125,709416.4375,0.0
1771965299.9521358,282510.5,708120.375,708648.3125,708670.125,708532.75,708559.5625,708906.625,709258.8125,0.0
1771965299.95215,282585.53125,707890.0,708417.8125,708439.8125,708302.5,708329.0625,708676.125,709028.1875,0.0
1771965299.959965,282590.25,708021.375,708548.875,708570.8125,708433.8125,708460.3125,708807.5625,709159.1875,0.0
1771965299.9626522,282521.59375,708269.0,708796.75,708818.625,708681.5625,708708.125,709055.6875,709407.125,0.0
1771965299.97276,282506.03125,708167.75,708695.6875,708717.8125,708580.8125,708607.0,708954.5625,709306.0625,0.0
1771965299.978426,282580.96875,707910.4375,708438.75,708460.3125,708323.3125,708349.6875,708697.0625,709048.4375,0.0
1771965299.9841783,282596.96875,707976.1875,708504.125,708526.0,708388.9375,708415.5,708762.6875,709114.3125,0.0
1771965299.9864075,282526.59375,708240.625,708768.0625,708790.1875,708653.25,708680.0625,709027.25,709378.875,0.0
1771965299.9889443,282494.59375,708210.875,708738.1875,708760.375,708623.125,708650.4375,708997.4375,709349.0,0.0
1771965299.9935026,282560.75,707938.4375,708466.125,708488.0,708350.875,708377.6875,708724.9375,709076.3125,0.0
1771965299.9959269,282599.03125,707936.4375,708464.5625,708486.5,708349.4375,708375.625,708723.625,709075.0,0.0
1771965299.9985666,282539.46875,708205.5,708733.375,708755.6875,708618.1875,708644.75,708992.625,709344.1875,0.0
1771965300.0009232,282500.84375,708244.8125,708772.3125,708794.5,708657.5625,708684.375,709031.4375,709383.1875,0.0
1771965300.0009408,282551.53125,707978.9375,708506.5,708528.3125,708391.875,708418.25,708765.0,709116.875,0.0
1771965300.0038047,282596.59375,707910.0,708437.5625,708459.5,708323.0625,708349.0,708696.5,709048.0625,0.0
1771965300.0061524,282540.28125,708161.75,708689.1875,708711.625,708574.375,708600.6875,708948.3125,709299.75,0.0
1771965300.0087407,282486.375,708267.6875,708795.375,708817.375,708680.0625,708706.875,709054.25,709405.75,0.0
1771965300.0088289,282525.96875,708027.8125,708555.9375,708577.25,708440.5625,708467.25,708814.625,709165.8125,0.0
1771965300.013457,282589.375,707892.3125,708420.1875,708441.8125,708305.0,708331.5625,708679.1875,709030.25,0.0
1771965300.0158806,282553.15625,708116.375,708644.0625,708665.5,708528.9375,708555.5,708902.9375,709254.3125,0.0
1771965300.0183887,282497.28125,708285.75,708813.375,708835.1875,708698.5,708725.3125,709072.125,709423.75,0.0
1771965300.021308,282524.375,708083.6875,708611.3125,708633.125,708496.125,708523.0,708869.875,709221.3125,0.0
1771965300.0235608,282578.46875,707888.625,708416.25,708437.9375,708301.0,708328.0,708675.25,709026.1875,0.0
1771965300.0235775,282561.125,708067.8125,708595.375,708617.0,708480.125,708506.8125,708854.125,709205.625,0.0
1771965300.0259192,282499.34375,708284.875,708812.5,708834.0,708697.0625,708723.9375,709070.75,709423.0625,0.0
1771965300.0259333,282503.8125,708134.75,708662.25,708684.0625,708546.9375,708573.875,708920.6875,709272.8125,0.0
1771965300.0285428,282578.09375,707897.0625,708425.0,708446.6875,708310.0,708336.5,708683.4375,709035.25,0.0
1771965300.030914,282575.9375,708021.75,708549.6875,708571.3125,708434.5625,708461.1875,708808.0625,709160.0,0.0
1771965300.030929,282516.84375,708276.0625,708803.25,708825.625,708688.3125,708715.375,709062.1875,709414.1875,0.0
1771965300.0334659,282507.09375,708185.4375,708712.9375,708734.9375,708598.0625,708625.0,708971.8125,709323.875,0.0
1771965300.0411625,282570.15625,707918.25,708445.5625,708467.25,708330.75,708357.5,708704.5,709056.3125,0.0
1771965300.0411975,282592.59375,707980.0,708507.3125,708528.8125,708392.375,708419.25,708766.0625,709117.5,0.0
1771965300.0488944,282525.15625,708248.9375,708775.8125,708797.625,708660.8125,708687.9375,709034.625,709386.125,0.0
1771965300.0489657,282492.4375,708225.6875,708752.9375,708774.375,708637.6875,708664.875,709011.75,709362.75,0.0
1771965300.0513797,282558.25,707953.125,708480.75,708502.125,708365.1875,708392.4375,708739.3125,709091.0625,0.0
1771965300.0536733,282598.46875,707945.125,708473.0625,708494.75,708357.6875,708384.5,708731.625,709083.3125,0.0
1771965300.0537412,282540.46875,708213.0625,708740.5625,708762.3125,708625.4375,708652.0625,708999.0625,709350.5,0.0
1771965300.0575159,282502.0,708264.25,708791.1875,708813.4375,708676.5,708702.9375,709049.9375,709401.375,0.0
1771965300.057587,282558.0625,708000.0625,708527.375,708549.25,708412.5625,708439.125,708786.0,709137.4375,0.0
1771965300.0576062,282604.46875,707922.3125,708449.75,708471.125,708334.625,708361.125,708708.375,709059.6875,0.0
1771965300.0600653,282563.0,708171.6875,708698.9375,708720.5,708583.3125,708610.5,708957.375,709309.0625,0.0
1771965300.060136,282513.53125,708287.3125,708814.4375,708836.0,708699.3125,708726.125,709072.75,709424.4375,0.0
1771965300.0628824,282545.46875,708050.625,708578.3125,708599.6875,708462.875,708489.4375,708836.5,709188.1875,0.0
1771965300.0629776,282609.5625,707908.1875,708436.0,708457.4375,708320.1875,708347.125,708694.1875,709045.75,0.0
1771965300.0648105,282571.5625,708124.125,708651.8125,708673.8125,708536.75,708562.9375,708910.5625,709261.8125,0.0
1771965300.0648744,282500.40625,708297.5625,708825.0625,708846.8125,708709.8125,708736.5625,709083.9375,709435.3125,0.0
1771965300.0673313,282535.09375,708103.8125,708631.0625,708652.5,708515.75,708542.625,708889.875,709241.0625,0.0
1771965300.0700977,282605.28125,707906.125,708433.375,708454.9375,708318.25,708344.9375,708691.75,709043.25,0.0
1771965300.0726583,282587.03125,708078.5625,708606.125,708627.0625,708490.3125,708517.1875,708864.125,709215.625,0.0
1771965300.0751183,282518.5625,708299.1875,708826.625,708848.125,708711.375,708738.0,709085.25,709436.5625,0.0
1771965300.0775516,282526.15625,708155.3125,708683.0,708704.75,708567.9375,708594.3125,708941.5,709293.0625,0.0
1771965300.0803118,282601.34375,707914.5,708441.875,708463.5,708327.1875,708353.5625,708700.5625,709052.1875,0.0
1771965300.0821996,282601.25,708033.8125,708561.3125,708582.875,708446.5625,708472.375,708820.0,709171.5625,0.0
1771965300.0822136,282528.3125,708286.375,708814.1875,708835.625,708698.6875,708725.1875,709072.375,709424.1875,0.0
1771965300.091633,282515.78125,708206.125,708734.0625,708755.25,708618.1875,708645.0,708992.1875,709343.625,0.0
1771965300.0936704,282579.15625,707940.6875,708468.875,708489.8125,708352.75,708379.375,708726.8125,709078.0,0.0
1771965300.0937195,282592.5,707988.75,708517.0625,708537.875,708401.5625,708428.125,708775.125,709126.5625,0.0
1771965300.0960605,282532.15625,708258.6875,708786.4375,708808.0,708671.375,708697.75,709045.125,709396.6875,0.0
1771965300.0961049,282509.0,708248.25,708775.8125,708797.25,708660.6875,708687.3125,709034.75,709386.125,0.0
1771965300.1009674,282566.84375,707974.5625,708502.5625,708523.4375,708387.0625,708413.8125,708761.0,709112.1875,0.0
1771965300.1079345,282612.0625,707958.0,708486.3125,708507.75,708371.1875,708397.8125,708744.6875,709096.3125,0.0
1771965300.1080055,282561.46875,708222.9375,708750.875,708772.6875,708636.0,708662.375,709009.25,709361.3125,0.0
1771965300.1163201,282507.5625,708282.0,708809.4375,708831.625,708694.8125,708721.1875,709068.375,709420.25,0.0
1771965300.116398,282554.125,708019.625,708547.3125,708569.1875,708432.5625,708458.875,708806.1875,709157.5625,0.0
1771965300.118981,282597.0625,707932.5,708460.3125,708482.0,708345.25,708371.6875,708719.125,709070.5625,0.0
1771965300.1251128,282546.0,708182.25,708709.8125,708731.375,708594.875,708621.4375,708968.5,709320.375,0.0
1771965300.125162,282493.25,708305.625,708833.125,708854.875,708718.6875,708744.8125,709091.875,709443.625,0.0
1771965300.1550841,282536.875,708072.125,708600.0625,708621.5,708485.3125,708511.25,708858.5,709210.3125,0.0
1771965300.182358,282593.21875,707918.125,708446.0625,708467.4375,708331.3125,708357.5,708704.375,709056.125,0.0
1771965300.1824245,282555.84375,708129.5625,708657.0,708678.625,708542.1875,708568.5625,708915.8125,709267.375,0.0
1771965300.1846335,282496.28125,708315.125,708842.25,708864.25,708727.625,708754.0,709101.4375,709453.0,0.0
1771965300.1872532,282523.1875,708123.9375,708651.5625,708673.0,708536.3125,708563.125,708910.1875,709261.625,0.0
1771965300.1896362,282590.25,707918.0625,708445.4375,708466.8125,708330.0625,708356.875,708704.375,709055.5625,0.0
1771965300.1926773,282571.125,708084.0,708611.375,708632.9375,708496.125,708522.875,708870.125,709221.75,0.0
1771965300.1946344,282504.96875,708310.125,708837.625,708859.3125,708722.25,708748.875,709096.3125,709448.0,0.0
1771965300.1974015,282512.84375,708173.8125,708701.25,708723.0,708586.125,708612.75,708960.0625,709312.0,0.0
1771965300.2038834,282574.875,707928.3125,708456.1875,708477.625,708341.0,708367.5625,708714.6875,709066.5625,0.0
1771965300.207379,282583.65625,708035.6875,708563.5625,708585.1875,708448.5,708475.0625,708822.0625,709173.875,0.0
1771965300.207444,282518.8125,708291.9375,708819.375,708840.875,708704.1875,708730.5,709078.0,709429.75,0.0
1771965300.2074633,282508.71875,708219.1875,708746.9375,708768.3125,708631.3125,708657.875,709005.6875,709357.125,0.0
1771965300.207478,282567.71875,707954.0625,708481.875,708503.0625,708366.25,708392.875,708740.25,709091.6875,0.0
1771965300.2101903,282596.78125,707996.875,708524.9375,708546.25,708409.4375,708435.875,708783.625,709134.875,0.0
1771965300.2102623,282543.3125,708267.8125,708795.6875,708816.875,708680.0,708706.875,709054.5625,709406.0625,0.0
1771965300.2124968,282499.0625,708263.4375,708791.375,708813.0,708675.75,708702.6875,709050.3125,709401.3125,0.0
1771965300.2152028,282548.0625,707989.375,708517.1875,708539.1875,708401.8125,708428.5625,708775.625,709127.125,0.0
1771965300.2152736,282592.03125,707962.75,708490.5,708512.4375,708375.125,708402.0,708748.875,709100.75,0.0
1771965300.2171354,282542.25,708226.3125,708754.0,708775.9375,708638.9375,708665.3125,709012.5625,709364.3125,0.0
1771965300.261788,282492.71875,708293.75,708821.3125,708843.4375,708706.625,708732.5625,709080.0,709431.8125,0.0
1771965300.2618573,282545.09375,708036.4375,708564.125,708586.0,708449.5625,708475.75,708822.875,709174.6875,0.0
1771965300.2638488,282601.6875,707941.8125,708469.5,708491.25,708354.6875,708381.1875,708728.1875,709079.875,0.0
1771965300.263919,282564.59375,708186.0,708713.4375,708735.5,708599.125,708625.375,708972.625,709324.25,0.0
1771965300.2715323,282500.65625,708315.5625,708843.5,708865.25,708728.3125,708754.6875,709102.5,709454.0,0.0
1771965300.271604,282536.6875,708086.75,708615.0,708636.5,708499.75,708526.125,708873.375,709225.1875,0.0
1771965300.2716265,282594.28125,707926.0625,708454.375,708475.5,708338.6875,708365.375,708712.5,709064.25,0.0
1771965300.271644,282563.96875,708133.8125,708661.9375,708683.625,708546.375,708572.875,708920.3125,709271.9375,0.0
1771965300.2716587,282503.1875,708324.375,708852.1875,708874.25,708736.8125,708763.1875,709110.3125,709462.1875,0.0
1771965300.275988,282524.09375,708139.625,708666.8125,708688.375,708551.75,708578.3125,708925.1875,709276.9375,0.0
1771965300.2760355,282595.09375,707926.1875,708453.9375,708475.125,708338.5,708365.1875,708712.3125,709063.875,0.0
1771965300.2789087,282577.65625,708084.625,708612.8125,708634.1875,708497.5625,708523.875,708871.125,709222.75,0.0
1771965300.2810605,282507.1875,708317.625,708845.3125,708867.125,708730.3125,708756.6875,709103.5625,709455.5,0.0
1771965300.283646,282506.46875,708190.625,708718.25,708740.25,708603.25,708629.8125,708976.625,709328.5,0.0
1771965300.2862124,282572.8125,707940.9375,708468.4375,708490.0625,708353.4375,708380.0,708726.8125,709078.625,0.0
1771965300.288921,282584.96875,708039.75,708567.5,708588.875,708452.3125,708479.0625,708826.0,709177.375,0.0
1771965300.29089,282517.46875,708299.8125,708827.375,708848.9375,708712.5,708739.25,709086.0,709437.625,0.0
1771965300.2935936,282494.15625,708235.375,708762.75,708784.5625,708648.125,708674.5,709021.625,709373.25,0.0
1771965300.2963707,282572.8125,707965.25,708493.375,708514.5,708378.0625,708404.3125,708751.5625,709103.125,0.0
1771965300.2989569,282588.03125,707999.875,708527.4375,708549.0625,708412.4375,708438.9375,708786.0,709137.5625,0.0
1771965300.2990413,282520.6875,708271.1875,708798.6875,708820.875,708683.4375,708710.3125,709057.1875,709409.0625,0.0
1771965300.3014684,282499.96875,708278.875,708805.9375,708828.1875,708691.0625,708717.625,709064.5,709416.5,0.0
1771965300.3061652,282554.5,708005.75,708533.0,708555.1875,708417.9375,708444.3125,708791.625,709143.25,0.0
1771965300.3062196,282588.125,707969.625,708497.25,708519.125,708382.0625,708408.5625,708755.625,709107.1875,0.0
1771965300.3087645,282534.375,708233.5,708761.0625,708783.0,708646.0625,708672.9375,709019.625,709371.625,0.0
1771965300.3164144,282490.65625,708307.9375,708835.4375,708857.25,708720.5,708747.125,709094.0,709445.375,0.0
1771965300.3164861,282538.9375,708051.875,708579.3125,708600.9375,708464.5625,708491.25,708838.0625,709189.125,0.0
1771965300.3514605,282592.3125,707946.6875,708474.0,708495.5,708359.5625,708385.75,708733.0625,709084.375,0.0
1771965300.3515296,282549.5625,708188.5,708715.8125,708737.375,708601.0,708627.5625,708974.6875,709326.0,0.0
1771965300.3564472,282492.4375,708328.4375,708855.9375,708877.625,708741.0625,708767.5,709114.75,709466.375,0.0
1771965300.356518,282530.0,708105.375,708633.125,708654.75,708518.4375,708544.5,708892.0625,709243.75,0.0
1771965300.3587224,282600.09375,707939.0625,708466.8125,708488.4375,708351.875,708378.25,708725.6875,709077.3125,0.0
1771965300.3636365,282563.96875,708137.75,708665.3125,708687.125,708550.6875,708577.25,708924.25,709275.9375,0.0
1771965300.3661096,282495.125,708334.75,708862.1875,708884.1875,708748.25,708774.1875,709121.1875,709472.75,0.0
1771965300.368736,282513.8125,708157.5,708685.1875,708707.0625,708570.375,708596.75,708943.8125,709295.4375,0.0
1771965300.3710363,282584.53125,707938.6875,708466.5625,708488.0,708351.5625,708377.6875,708724.75,709076.875,0.0
1771965300.3733857,282572.8125,708092.5,708620.1875,708641.5,708505.0625,708531.1875,708878.5625,709230.5625,0.0
1771965300.3758936,282509.34375,708329.5625,708857.0625,708878.5625,708742.1875,708768.0625,709115.375,709467.5,0.0
1771965300.380982,282514.09375,708209.625,708736.375,708758.5625,708621.6875,708648.125,708995.3125,709346.75,0.0
1771965300.3835223,282577.75,707956.0625,708483.625,708505.5625,708368.75,708395.5,708742.375,709094.1875,0.0
1771965300.383538,282591.40625,708048.6875,708576.6875,708598.25,708462.0625,708488.4375,708835.1875,709187.0625,0.0
1771965300.3910575,282522.75,708308.5,708836.25,708858.0,708721.375,708747.8125,709094.9375,709446.5625,0.0
1771965300.3935266,282508.53125,708255.0,708782.6875,708804.1875,708667.5625,708693.9375,709041.25,709393.1875,0.0
1771965300.4008918,282582.3125,707987.25,708514.9375,708536.5625,708399.5625,708426.5,708773.6875,709125.125,0.0
1771965300.4062088,282598.5625,708011.5625,708539.4375,708561.125,708424.0625,708450.9375,708798.0,709149.625,0.0
1771965300.406246,282540.71875,708281.9375,708809.625,708831.1875,708694.1875,708720.9375,709068.0625,709419.8125,0.0
1771965300.40849,282511.59375,708297.5625,708825.0625,708846.625,708710.125,708736.5625,709083.5625,709435.375,0.0
1771965300.4165132,282567.09375,708028.3125,708556.0625,708577.625,708440.75,708467.25,708814.4375,709166.1875,0.0
1771965300.4188864,282610.09375,707982.6875,708510.625,708532.4375,708395.5625,708421.875,708769.375,709120.9375,0.0
1771965300.4216595,282553.96875,708243.25,708771.0625,708793.4375,708656.125,708682.375,709030.0625,709381.5625,0.0
1771965300.427468,282501.46875,708326.875,708854.6875,708876.9375,708739.6875,708765.875,709113.4375,709465.125,0.0
1771965300.429787,282551.8125,708072.8125,708601.0,708622.8125,708485.9375,708511.8125,708859.5,709211.25,0.0
1771965300.4327016,282607.25,707959.625,708487.6875,708509.375,708372.6875,708398.6875,708746.375,709097.4375,0.0
1771965300.4327512,282575.78125,708197.375,708724.9375,708746.6875,708609.6875,708636.0625,708983.6875,709334.875,0.0
1771965300.4353929,282506.03125,708341.375,708868.8125,708890.25,708753.4375,708779.9375,709127.375,709478.75,0.0
1771965300.4392056,282529.5625,708121.1875,708648.75,708670.4375,708533.5,708559.8125,708907.0,709258.6875,0.0
1771965300.4392753,282594.28125,707948.5625,708476.0625,708497.875,708360.6875,708387.375,708734.875,709085.875,0.0
1771965300.4392953,282573.8125,708143.6875,708671.1875,708693.375,708556.125,708582.625,708930.125,709281.0625,0.0
1771965300.440958,282508.90625,708344.0625,708872.125,708893.9375,708757.25,708783.4375,709130.9375,709481.9375,0.0
1771965300.4723325,282523.65625,708172.9375,708700.875,708723.0,708585.75,708612.125,708959.75,709311.125,0.0
1771965300.4772975,282605.53125,707950.5,708478.1875,708500.1875,708363.3125,708389.5,708737.0,709088.375,0.0
1771965300.477346,282594.5625,708096.0625,708623.625,708646.0,708508.6875,708535.125,708882.3125,709234.0,0.0
1771965300.4800289,282518.09375,708336.75,708864.0625,708886.4375,708749.4375,708775.75,709123.3125,709474.625,0.0
1771965300.485191,282510.3125,708221.125,708748.375,708770.75,708633.75,708660.1875,709007.75,709358.8125,0.0
1771965300.4878263,282574.15625,707967.25,708494.75,708516.875,708379.8125,708406.5625,708754.0,709105.1875,0.0
1771965300.490214,282583.65625,708052.0625,708579.6875,708601.625,708464.75,708491.25,708838.375,709189.75,0.0
1771965300.492136,282513.0,708314.1875,708841.625,708863.625,708726.9375,708753.1875,709100.375,709451.9375,0.0
1771965300.4951031,282496.28125,708269.4375,708796.9375,708818.4375,708681.875,708708.5,709055.6875,709407.1875,0.0
1771965300.50004,282563.71875,707997.6875,708525.1875,708547.125,708410.3125,708437.125,708784.25,709135.75,0.0
1771965300.5025153,282589.4375,708012.125,708539.625,708561.75,708424.5625,708451.1875,708798.5,709150.1875,0.0
1771965300.504982,282525.34375,708283.125,708810.875,708832.6875,708695.5,708721.8125,709069.4375,709420.8125,0.0
1771965300.5050507,282494.78125,708307.25,708835.0,708856.4375,708719.5,708745.875,709093.5,709444.9375,0.0
1771965300.5097384,282544.9375,708038.8125,708566.5,708588.125,708451.0625,708477.8125,708825.0,709176.4375,0.0
1771965300.5124607,282572.28125,707984.5,708512.25,708534.125,708396.9375,708423.625,708770.8125,709122.0,0.0
1771965300.5125077,282519.28125,708244.5,708772.125,708794.3125,708657.0625,708683.4375,709031.1875,709382.375,0.0
1771965300.5536184,282477.0625,708338.0,708865.375,708887.9375,708750.6875,708777.0625,709124.5,709475.875,0.0
1771965300.556398,282522.125,708088.25,708615.9375,708637.875,708500.625,708527.6875,708875.0,709226.1875,0.0
1771965300.5726807,282572.46875,707966.125,708494.375,708515.75,708378.5625,708405.5,708753.0,709104.5,0.0
1771965300.5746348,282533.75,708199.75,708728.1875,708749.375,708612.75,708639.125,708986.5625,709338.0,0.0
1771965300.577649,282471.71875,708354.1875,708881.75,708903.6875,708766.625,708792.6875,709140.3125,709492.125,0.0
1771965300.5799143,282509.96875,708140.9375,708668.25,708690.5,708553.0,708579.6875,708927.125,709278.375,0.0
1771965300.5823667,282574.15625,707959.625,708487.1875,708508.875,708371.4375,708398.25,708745.75,709097.0625,0.0
1771965300.5849485,282542.4375,708151.375,708679.375,708700.8125,708563.625,708589.9375,708937.8125,709289.0,0.0
1771965300.5850203,282477.5,708357.3125,708885.25,708907.0,708769.9375,708796.1875,709143.8125,709495.375,0.0
1771965300.5897107,282492.4375,708193.875,708721.625,708743.5625,708606.3125,708632.6875,708980.125,709332.0,0.0
1771965300.5922425,282577.125,707967.25,708494.5625,708516.1875,708379.3125,708406.0,708753.1875,709105.0,0.0
1771965300.5948849,282558.34375,708101.625,708628.9375,708650.625,708514.1875,708540.0625,708887.75,709239.6875,0.0
1771965300.5972512,282493.15625,708347.625,708875.125,708896.625,708760.4375,708786.1875,709133.6875,709485.8125,0.0
1771965300.597267,282494.40625,708242.125,708770.25,708791.4375,708654.75,708681.0625,709028.5625,709380.375,0.0
1771965300.6005456,282564.59375,707982.6875,708510.75,708532.125,708394.9375,708421.6875,708769.3125,709121.0,0.0
1771965300.6048598,282583.5625,708060.1875,708588.125,708609.4375,708472.625,708499.1875,708846.625,709198.5625,0.0
1771965300.607106,282510.6875,708324.875,708852.625,708874.1875,708737.625,708763.6875,709111.4375,709463.0,0.0
1771965300.6121387,282493.25,708286.75,708814.625,708836.25,708699.3125,708725.5625,709073.25,709425.0,0.0
1771965300.6148074,282555.46875,708015.3125,708542.625,708564.4375,708427.25,708453.6875,708801.0,709152.875,0.0
1771965300.6148229,282584.8125,708023.375,708550.6875,708572.125,708435.25,708461.9375,708809.25,709160.8125,0.0
1771965300.6197572,282527.40625,708294.25,708821.5625,708843.0625,708706.5,708733.0,709080.3125,709431.875,0.0
1771965300.6222303,282496.65625,708327.4375,708854.875,708876.75,708739.9375,708766.3125,709113.4375,709465.5,0.0
1771965300.6222463,282553.25,708059.9375,708587.5,708609.4375,708472.5625,708498.9375,708846.1875,709197.9375,0.0
1771965300.6249208,282592.40625,707994.5,708522.0,708543.5625,708406.8125,708433.1875,708780.1875,709132.1875,0.0
1771965300.6273005,282537.40625,708249.3125,708776.8125,708798.625,708661.5625,708688.375,709035.25,709387.375,0.0
1771965300.6273153,282482.96875,708349.5,708876.9375,708899.125,708762.125,708788.875,709135.9375,709487.5625,0.0
1771965300.629858,282528.9375,708106.9375,708633.9375,708655.9375,708519.25,708545.6875,708893.125,709244.375,0.0
1771965300.6351123,282587.40625,707976.6875,708504.4375,708526.3125,708389.3125,708416.0625,708763.1875,709114.3125,0.0
1771965300.6384182,282551.09375,708205.6875,708732.8125,708754.8125,708617.5,708644.75,708991.625,709343.4375,0.0
1771965300.6384337,282487.34375,708365.8125,708892.9375,708914.9375,708777.5,708804.8125,709151.6875,709503.6875,0.0
1771965300.6384408,282507.5625,708159.0625,708686.5625,708708.6875,708571.4375,708598.25,708945.3125,709297.25,0.0
1771965300.6410325,282575.5,707974.0,708501.6875,708523.3125,708386.5625,708413.25,708760.5,709112.0625,0.0
1771965300.6410692,282561.125,708160.875,708688.4375,708710.125,708573.3125,708599.875,708947.1875,709298.5625,0.0
1771965300.6434095,282491.71875,708372.3125,708899.8125,708921.75,708784.6875,708811.25,709158.5625,709509.9375,0.0
1771965300.646018,282504.6875,708214.0,708741.3125,708763.125,708626.4375,708653.0625,709000.125,709351.6875,0.0
1771965300.682616,282572.8125,707981.8125,708509.625,708530.6875,708393.9375,708420.875,708768.0625,709119.5,0.0
1771965300.6853907,282563.625,708108.5625,708636.4375,708657.25,708520.75,708547.5625,708894.9375,709246.25,0.0
1771965300.6854832,282493.25,708356.4375,708883.75,708905.375,708768.3125,708794.75,709142.5,709494.125,0.0
1771965300.6952608,282482.15625,708262.25,708789.875,708810.875,708674.25,708700.4375,709048.0,709399.9375,0.0
1771965300.6953318,282550.65625,708003.875,708531.9375,708553.125,708416.125,708442.875,708789.75,709141.6875,0.0
1771965300.6971471,282563.875,708069.3125,708597.1875,708618.4375,708481.5,708508.25,708855.5,709207.1875,0.0
1771965300.699866,282496.90625,708336.75,708864.0625,708885.6875,708748.875,708775.25,709122.625,709474.5625,0.0
1771965300.7026565,282474.46875,708309.1875,708836.8125,708858.625,708721.5625,708748.0,709095.375,709447.1875,0.0
1771965300.705144,282537.34375,708036.4375,708564.125,708585.375,708448.6875,708475.3125,708822.5,709174.5,0.0
1771965300.7072232,282571.75,708032.25,708559.75,708581.25,708444.75,708470.875,708818.0,709170.375,0.0
1771965300.710143,282509.78125,708299.0,708826.875,708848.4375,708711.5625,708737.9375,709085.1875,709437.1875,0.0
1771965300.7124956,282474.9375,708342.0,708870.125,708891.6875,708754.4375,708781.0,709128.25,709479.875,0.0
1771965300.712594,282533.5625,708076.5,708604.6875,708626.0,708488.5625,708515.375,708862.5625,709214.375,0.0
1771965300.7175467,282583.1875,708003.25,708531.375,708552.6875,708415.3125,708442.4375,708789.3125,709141.25,0.0
1771965300.745164,282524.09375,708254.3125,708782.1875,708803.4375,708666.75,708693.1875,709040.375,709392.0,0.0
1771965300.7550287,282474.375,708364.25,708891.75,708913.0625,708776.0625,708802.75,709149.8125,709501.875,0.0
1771965300.7591345,282531.96875,708124.5625,708651.75,708673.0,708536.5625,708563.1875,708910.125,709261.9375,0.0
1771965300.7592108,282582.9375,707987.4375,708514.9375,708536.3125,708399.6875,708426.3125,708773.25,709125.125,0.0
1771965300.7592306,282536.0,708210.0625,708737.9375,708759.5625,708622.375,708648.9375,708996.0,709348.125,0.0
1771965300.7609165,282477.96875,708378.3125,708905.875,708927.5625,708790.3125,708817.0625,709164.0,709516.3125,0.0
1771965300.7665744,282505.3125,708176.1875,708703.75,708725.0625,708588.0625,708615.0,708961.875,709313.9375,0.0
1771965300.7726023,282575.59375,707980.1875,708508.125,708529.3125,708392.1875,708419.0,708766.1875,709118.3125,0.0
1771965300.774728,282565.59375,708154.4375,708682.375,708704.3125,708567.125,708593.8125,708940.875,709292.6875,0.0
1771965300.7800276,282495.21875,708372.5625,708900.25,708922.375,708785.375,708811.75,709159.1875,709510.5625,0.0
1771965300.7826371,282507.375,708224.5625,708751.75,708773.5625,708636.8125,708663.4375,709010.6875,709362.25,0.0
1771965300.7850983,282583.375,707988.875,708516.0,708537.625,708400.875,708427.5625,708774.75,709126.3125,0.0
1771965300.7878537,282583.71875,708110.5625,708638.25,708659.3125,708522.6875,708549.375,708896.6875,709248.3125,0.0
1771965300.7898972,282492.1875,708362.6875,708890.1875,708911.8125,708774.8125,708801.5,709148.9375,709500.625,0.0
1771965300.801389,282489.3125,708275.5,708803.0,708824.625,708687.6875,708714.3125,709061.3125,709413.375,0.0
1771965300.803486,282562.625,708010.5625,708538.1875,708559.8125,708423.0,708449.5625,708796.5625,709148.125,0.0
1771965300.806274,282585.34375,708067.8125,708595.375,708617.0,708480.4375,708506.8125,708853.875,709205.625,0.0
1771965300.808958,282518.65625,708338.1875,708866.1875,708887.5,708750.6875,708777.0625,709124.4375,709476.25,0.0
1771965300.8090303,282487.53125,708318.3125,708846.0,708867.5625,708730.5625,708757.375,709104.75,709456.3125,0.0
1771965300.811318,282548.0625,708044.375,708572.3125,708593.3125,708456.8125,708483.375,708830.5625,709182.4375,0.0
1771965300.813624,282586.3125,708032.75,708560.4375,708581.6875,708444.8125,708471.3125,708818.75,709170.25,0.0
1771965300.8186343,282528.75,708299.875,708827.5625,708849.0625,708711.875,708738.5625,709086.125,709437.4375,0.0
1771965300.8187025,282474.28125,708349.4375,708876.5,708898.6875,708761.5,708788.0,709135.6875,709487.25,0.0
1771965300.8216116,282523.5625,708087.75,708615.0,708637.25,708500.375,708526.8125,708873.8125,709225.5625,0.0
1771965300.8216815,282580.5,708008.0625,708535.6875,708557.3125,708420.6875,708447.1875,708794.25,709145.875,0.0
1771965300.826322,282536.25,708258.0,708785.8125,708807.1875,708670.5,708697.125,709044.1875,709396.0625,0.0
1771965300.8263776,282467.3125,708374.9375,708902.125,708923.875,708786.8125,708813.875,709160.875,709512.625,0.0
1771965300.828716,282512.28125,708137.625,708665.0625,708686.6875,708549.8125,708576.625,708923.875,709275.4375,0.0
1771965300.8337753,282581.75,707993.25,708520.5625,708542.1875,708405.25,708432.0625,708779.1875,709131.125,0.0
1771965300.8338237,282536.6875,708210.5,708737.8125,708759.4375,708622.1875,708649.0625,708996.5,709348.1875,0.0
1771965300.8362668,282470.0,708386.0625,708913.4375,708935.3125,708798.0,708824.375,709172.25,709523.875,0.0
1771965300.8383949,282500.9375,708192.375,708719.75,708741.9375,708604.25,708630.625,708978.5,709329.8125,0.0
1771965300.841154,282572.46875,707994.75,708522.4375,708544.25,708406.9375,708433.375,708780.8125,709132.0,0.0
1771965300.8435397,282556.375,708167.3125,708695.0625,708716.4375,708579.5,708606.375,708953.5,709304.75,0.0
1771965300.8435555,282485.65625,708389.9375,708917.5,708938.875,708802.125,708828.9375,709175.5625,709527.375,0.0
1771965300.8485117,282495.5625,708248.75,708776.0625,708797.5625,708660.5625,708687.5,709034.625,709386.3125,0.0
1771965300.8535824,282567.0,708005.75,708533.625,708555.0625,708418.0,708444.625,708792.1875,709143.625,0.0
1771965300.8571563,282557.625,708119.6875,708647.875,708669.25,708532.4375,708558.9375,708906.4375,709258.1875,0.0
1771965300.8571713,282494.875,708375.375,708903.5,708924.75,708788.0,708814.4375,709162.25,709513.9375,0.0
1771965300.9361255,282483.0625,708295.8125,708824.0,708845.375,708708.3125,708734.75,709082.6875,709434.0625,0.0
1771965300.9498873,282554.5,708031.125,708559.375,708580.5625,708443.5625,708470.3125,708817.5625,709169.125,0.0
1771965300.9499557,282574.0,708080.75,708608.8125,708630.375,708493.125,708519.875,708867.4375,709218.8125,0.0
1771965300.9775662,282514.09375,708350.4375,708878.375,708900.0,708763.0625,708789.5625,709137.125,709488.6875,0.0
1771965300.9911451,282491.90625,708341.6875,708869.3125,708891.25,708754.4375,708780.9375,709128.0625,709479.875,0.0
1771965300.9934993,282558.875,708068.875,708596.4375,708618.1875,708481.375,708507.9375,708854.875,709206.5,0.0
1771965300.996304,282586.875,708045.125,708572.9375,708594.75,708458.0625,708484.6875,708831.625,709183.125,0.0
1771965300.9985783,282524.1875,708311.0,708839.0,708860.375,708723.875,708750.5,709097.6875,709449.5,0.0
1771965301.001469,282483.875,708371.1875,708898.9375,708920.1875,708783.5,708809.875,709157.5625,709509.25,0.0
1771965301.003661,282535.625,708111.4375,708639.625,708660.8125,708523.875,708550.625,708897.75,709249.375,0.0
1771965301.008876,282580.96875,708024.375,708552.0625,708573.375,708436.625,708463.4375,708810.4375,709162.125,0.0
1771965301.0162468,282530.625,708270.375,708797.875,708819.1875,708682.3125,708709.3125,709056.1875,709408.3125,0.0
1771965301.0187848,282471.34375,708394.4375,708921.75,708943.5625,708806.8125,708833.3125,709180.3125,709532.375,0.0
1771965301.0210917,282512.28125,708162.125,708689.6875,708711.375,708575.0,708601.1875,708948.125,709300.375,0.0
1771965301.0236049,282580.96875,708009.9375,708537.75,708559.1875,708422.6875,708449.1875,708795.6875,709147.8125,0.0
1771965301.0262833,282555.03125,708223.9375,708751.4375,708773.125,708636.4375,708662.625,709009.625,709362.0,0.0
1771965301.0287163,282485.65625,708405.5,708932.875,708954.875,708818.3125,708844.125,709191.3125,709543.5625,0.0
1771965301.0337667,282513.90625,708214.6875,708742.4375,708764.1875,708627.3125,708653.875,709001.0625,709352.9375,0.0
1771965301.0385778,282578.53125,708008.4375,708536.3125,708557.8125,708420.8125,708447.625,708794.9375,709146.6875,0.0
1771965301.0439055,282554.0625,708171.0,708699.125,708720.75,708583.5,708610.0625,708957.875,709309.5,0.0
1771965301.046596,282485.28125,708398.875,708927.0,708948.75,708811.75,708838.125,709185.75,709537.3125,0.0
1771965301.0483956,282485.125,708264.125,708792.0625,708813.625,708677.125,708703.3125,709050.9375,709402.5625,0.0
1771965301.0561514,282567.0,708021.3125,708549.875,708570.8125,708434.375,708460.75,708808.0625,709159.9375,0.0
1771965301.0562036,282584.71875,708129.0625,708657.8125,708678.625,708542.0,708568.375,708915.75,709267.625,0.0
1771965301.0638216,282503.34375,708383.5,708911.8125,708932.875,708796.125,708823.3125,709170.0,709521.75,0.0
1771965301.066435,282480.90625,708312.6875,708840.5625,708862.1875,708725.375,708752.0625,709099.125,709450.75,0.0
1771965301.068886,282552.4375,708044.1875,708572.125,708593.875,708457.25,708483.1875,708830.6875,709182.4375,0.0
1771965301.0713537,282583.1875,708084.25,708612.3125,708634.0,708497.375,708523.0625,708870.9375,709222.5625,0.0
1771965301.0758944,282510.25,708351.875,708879.5,708901.0625,708764.3125,708790.5,709138.25,709490.0,0.0
1771965301.0785785,282473.84375,708351.0625,708878.75,708900.0625,708763.5,708790.0625,709137.1875,709488.9375,0.0
1771965301.0860853,282541.625,708079.25,708606.8125,708628.125,708491.75,708518.0625,708865.5,709217.125,0.0
1771965301.08859,282577.84375,708050.1875,708577.6875,708599.125,708462.5625,708489.1875,708836.375,709187.8125,0.0
1771965301.09093,282533.03125,708315.5625,708843.25,708864.9375,708728.0625,708754.5625,709101.875,709453.1875,0.0
1771965301.093494,282488.6875,708382.3125,708910.0,708931.9375,708794.75,708821.25,709168.6875,709520.3125,0.0
1771965301.0959113,282535.09375,708122.3125,708650.375,708671.75,708535.0625,708561.4375,708908.5,709260.5,0.0
1771965301.1048017,282585.53125,708024.25,708552.6875,708574.1875,708437.0625,708463.5,708810.5,709162.5,0.0
1771965301.10484,282548.3125,708272.125,708800.125,708821.125,708684.25,708711.25,709058.0,709410.0625,0.0
1771965301.1048565,282491.90625,708401.75,708929.75,708950.6875,708813.875,708841.0,709187.6875,709539.625,0.0
1771965301.1048698,282519.28125,708171.9375,708700.0,708720.8125,708583.875,708611.0625,708958.125,709309.875,0.0
1771965301.1048827,282579.15625,708013.6875,708541.6875,708562.5,708425.5,708452.8125,708799.875,709151.25,0.0
1771965301.1048963,282551.8125,708222.125,708750.25,708771.375,708634.1875,708661.125,709008.1875,709359.75,0.0
1771965301.107296,282486.1875,708409.8125,708937.9375,708959.375,708822.375,708848.875,709196.125,709547.6875,0.0
1771965301.1073327,282505.59375,708226.125,708754.4375,708775.9375,708638.9375,708665.125,709012.6875,709364.0,0.0
1771965301.112456,282572.375,708011.125,708539.875,708560.875,708423.5625,708450.1875,708797.75,709149.25,0.0
1771965301.1124923,282557.90625,708169.8125,708697.9375,708719.25,708581.875,708608.5625,708956.0,709307.8125,0.0
1771965301.1148355,282494.59375,708404.0,708931.9375,708953.5,708816.25,708842.6875,709189.9375,709542.125,0.0
1771965301.1174896,282500.21875,708277.625,708805.5,708827.125,708689.875,708716.75,709063.625,709415.4375,0.0
1771965301.1175077,282563.25,708026.0625,708554.25,708575.8125,708438.5625,708465.5625,708812.375,709163.9375,0.0
1771965301.119718,282570.15625,708127.0625,708655.0,708676.75,708539.25,708566.4375,708913.5,709264.875,0.0
1771965301.119732,282499.40625,708387.5,708915.5,708936.9375,708799.625,708826.875,709174.125,709525.375,0.0
1771965301.1247172,282484.59375,708324.0625,708851.625,708873.625,708736.5625,708763.5,709110.5625,709462.1875,0.0
1771965301.1285543,282553.34375,708055.125,708583.4375,708605.25,708468.0,708494.75,708841.5625,709193.0625,0.0
1771965301.1285913,282577.84375,708087.9375,708616.0625,708637.625,708501.0,708527.25,708874.1875,709225.875,0.0
1771965301.1286092,282511.65625,708357.375,708885.6875,708906.8125,708770.375,708796.5625,709143.8125,709495.625,0.0
1771965301.1309652,282479.46875,708363.8125,708892.0625,708913.3125,708776.4375,708803.1875,709150.0625,709501.6875,0.0
1771965301.1309793,282543.78125,708093.8125,708621.6875,708643.125,708506.625,708533.1875,708880.0625,709231.8125,0.0
1771965301.133525,282586.21875,708055.9375,708583.3125,708605.0625,708468.5,708494.75,708841.6875,709193.6875,0.0
1771965301.1362023,282534.8125,708318.3125,708845.9375,708867.8125,708731.0,708757.375,709104.5625,709456.5625,0.0
1771965301.1411738,282484.65625,708392.0625,708920.1875,708941.6875,708805.0625,708831.3125,709178.3125,709530.4375,0.0
1771965301.1412215,282528.5625,708139.3125,708667.75,708688.8125,708552.3125,708578.3125,708925.5,709277.3125,0.0
1771965301.1439357,282582.03125,708034.125,708562.5,708583.75,708447.4375,708473.375,708820.625,709172.0,0.0
1771965301.144059,282549.21875,708273.875,708801.8125,708823.375,708686.6875,708713.125,709059.9375,709411.6875,0.0
1771965301.1466217,282487.0,708414.1875,708941.9375,708963.5625,708826.9375,708853.5,709200.125,709551.75,0.0
1771965301.1489277,282528.21875,708192.375,708720.375,708741.75,708604.8125,708631.8125,708978.125,709330.25,0.0
1771965301.151132,282595.875,708025.9375,708554.1875,708575.375,708438.5,708465.3125,708811.9375,709164.125,0.0
1771965301.15498,282567.0,708227.3125,708755.625,708777.0625,708640.0,708666.375,709013.75,709365.5625,0.0
1771965301.1550477,282494.5,708421.5625,708949.625,708971.1875,708834.3125,708860.5,709207.8125,709559.625,0.0
1771965301.1550736,282516.59375,708245.375,708773.3125,708794.9375,708658.0,708684.375,709031.4375,709383.4375,0.0
1771965301.1577325,282586.875,708029.0625,708557.375,708579.125,708442.3125,708468.6875,708815.4375,709167.5,0.0
1771965301.159818,282563.71875,708177.0,708705.4375,708727.1875,708590.125,708616.5625,708963.6875,709315.6875,0.0
1771965301.1627023,282497.8125,708414.625,708942.625,708964.3125,708827.25,708853.5,709200.875,709552.6875,0.0
1771965301.1627715,282501.84375,708296.625,708824.25,708846.0625,708709.0,708735.3125,709082.75,709434.6875,0.0
1771965301.1647897,282576.40625,708044.3125,708572.3125,708593.9375,708456.75,708483.4375,708830.6875,709182.0625,0.0
1771965301.172284,282582.65625,708135.5625,708664.125,708685.3125,708548.375,708575.0,708922.0625,709273.5625,0.0
1771965301.172346,282509.4375,708395.8125,708923.9375,708945.3125,708808.5625,708835.125,709182.0625,709534.0,0.0
1771965301.178714,282496.90625,708342.1875,708870.0625,708891.625,708754.6875,708781.25,709128.1875,709480.4375,0.0
1771965301.181399,282555.03125,708071.5,708599.625,708621.25,708484.4375,708510.875,708858.0,709209.8125,0.0
1771965301.186164,282581.40625,708094.5625,708622.6875,708644.125,708507.9375,708534.0,708881.125,709232.75,0.0
1771965301.1862326,282528.84375,708366.0625,708894.125,708915.8125,708778.875,708805.3125,709152.3125,709504.375,0.0
1771965301.1925313,282477.875,708382.5,708910.9375,708932.125,708795.125,708822.25,709168.75,709520.9375,0.0
1771965301.1948361,282543.5,708112.75,708641.6875,708662.5625,708525.75,708552.375,708899.125,709250.8125,0.0
1771965301.19488,282586.5,708067.625,708596.0,708617.3125,708480.5,708507.0,708854.0625,709205.5,0.0
1771965301.199767,282536.4375,708328.25,708856.0,708878.0,708740.6875,708767.0625,709114.5625,709466.125,0.0
1771965301.2052307,282477.34375,708408.4375,708936.8125,708958.625,708821.125,708847.5,709195.125,709546.875,0.0
1771965301.2053013,282526.6875,708156.875,708685.3125,708706.5,708569.8125,708596.3125,708943.375,709295.375,0.0
1771965301.2072692,282577.84375,708045.0,708573.375,708594.0625,708457.4375,708484.4375,708831.25,709183.125,0.0
1771965301.2104564,282537.59375,708279.25,708807.375,708828.75,708692.0625,708718.5,709065.5625,709417.5625,0.0
1771965301.2137933,282476.4375,708430.0,708958.1875,708979.75,708842.625,708869.0625,709216.4375,709568.5,0.0
1771965301.2138393,282506.84375,708210.6875,708738.6875,708760.375,708623.125,708650.0,708997.0,709348.8125,0.0
1771965301.2497275,282568.96875,708036.4375,708564.5625,708586.25,708449.125,708475.9375,708822.875,709174.5625,0.0
1771965301.24977,282550.46875,708235.4375,708763.3125,708785.3125,708648.4375,708674.6875,709022.25,709373.75,0.0
1771965301.2577007,282485.21875,708436.625,708964.5625,708986.125,708849.3125,708875.6875,709223.375,709575.1875,0.0
1771965301.2577748,282504.34375,708265.5,708793.3125,708815.0,708678.25,708704.8125,709052.25,709404.0,0.0
1771965301.257802,282578.0,708041.25,708569.1875,708590.3125,708453.5,708480.3125,708827.875,709179.375,0.0
1771965301.2646873,282557.28125,708184.75,708712.625,708734.0,708597.375,708624.0,708971.625,709323.0625,0.0
1771965301.2647128,282480.5625,708424.5625,708952.5,708973.875,708837.5,708863.6875,709211.4375,709562.6875,0.0
1771965301.2647295,282480.71875,708310.5625,708838.9375,708859.75,708723.25,708750.0,709097.5,709448.6875,0.0
1771965301.267299,282554.84375,708054.5,708582.875,708603.875,708467.125,708494.1875,708841.25,709192.625,0.0
1771965301.2673364,282572.375,708139.0625,708667.25,708688.8125,708551.875,708578.75,708926.125,709277.5,0.0
1771965301.2697272,282501.84375,708401.375,708929.0625,708950.9375,708813.5625,708840.8125,709188.3125,709539.4375,0.0
1771965301.2723665,282473.84375,708353.875,708881.875,708903.375,708766.1875,708793.1875,709140.6875,709492.0625,0.0
1771965301.3026593,282536.15625,708083.875,708611.9375,708633.6875,708496.625,708523.625,708870.6875,709222.125,0.0
1771965301.3048146,282567.71875,708099.25,708627.3125,708649.0625,708512.0625,708538.8125,708886.0625,709237.5,0.0
1771965301.3103902,282511.125,708369.1875,708897.25,708919.25,708782.25,708808.625,709156.0625,709507.6875,0.0
1771965301.3126607,282474.03125,708393.25,708921.125,708943.125,708805.6875,708832.5,709180.0,709531.5,0.0
1771965301.316426,282536.78125,708125.5625,708653.3125,708675.3125,708538.25,708564.875,708912.0625,709263.625,0.0
1771965301.316474,282585.6875,708073.6875,708601.5,708623.1875,708486.4375,708513.0625,708860.0625,709211.4375,0.0
1771965301.3164833,282531.96875,708329.3125,708857.4375,708879.0,708741.9375,708769.125,709116.125,709467.3125,0.0
1771965301.318526,282479.84375,708421.0625,708949.375,708970.875,708833.8125,708860.9375,709207.3125,709559.125,0.0
1771965301.3185809,282532.59375,708173.8125,708702.125,708723.6875,708586.8125,708613.8125,708960.5625,709311.875,0.0
1771965301.3235824,282586.6875,708051.0625,708579.6875,708601.1875,708464.0625,708490.875,708837.625,709188.9375,0.0
1771965301.3260753,282540.90625,708281.9375,708810.3125,708831.875,708695.1875,708721.5625,709068.6875,709420.1875,0.0
1771965301.3312175,282484.3125,708438.5625,708966.3125,708988.25,708851.4375,708877.8125,709224.9375,709576.625,0.0
1771965301.333424,282519.90625,708227.0625,708755.25,708776.8125,708640.125,708666.5,709013.625,709365.1875,0.0
1771965301.3635497,282576.03125,708045.4375,708573.875,708595.6875,708458.4375,708485.125,708832.0625,709183.6875,0.0
1771965301.3662252,282545.65625,708234.375,708762.9375,708784.875,708647.4375,708674.4375,709021.4375,709372.9375,0.0
1771965301.368431,282484.65625,708443.25,708971.6875,708993.4375,708855.9375,708883.1875,709229.9375,709581.3125,0.0
1771965301.3684464,282494.6875,708280.6875,708809.0,708830.625,708693.5,708720.5625,709067.4375,709419.125,0.0
1771965301.3710375,282558.34375,708052.875,708581.375,708603.1875,708465.6875,708492.9375,708839.9375,709191.625,0.0
1771965301.3772266,282554.84375,708189.9375,708718.0,708740.0625,708602.8125,708629.875,708976.6875,709328.25,0.0
1771965301.3796663,282485.5625,708436.0,708963.3125,708985.625,708848.5,708875.4375,709222.5,709574.125,0.0
1771965301.3826125,282480.5625,708330.75,708858.3125,708880.75,708742.9375,708770.1875,709117.25,709468.875,0.0
1771965301.385262,282555.9375,708072.125,708600.125,708621.9375,708484.625,708511.8125,708858.6875,709210.25,0.0
1771965301.3876417,282571.21875,708147.0,708674.875,708696.625,708559.4375,708586.4375,708933.5,709284.875,0.0
1771965301.3897352,282504.96875,708412.1875,708939.9375,708962.125,708824.75,708851.75,709199.0625,709550.5,0.0
1771965301.3926659,282473.5,708372.3125,708900.4375,708922.375,708784.9375,708812.1875,709159.5625,709510.9375,0.0
1771965301.3949568,282534.90625,708099.625,708627.6875,708649.1875,708512.3125,708539.3125,708886.5,709238.25,0.0
1771965301.3950248,282575.3125,708107.6875,708636.0625,708657.25,708520.375,708547.0,708894.375,709246.1875,0.0
1771965301.3978431,282520.15625,708377.875,708906.0625,708927.1875,708790.375,708817.3125,709164.1875,709516.1875,0.0
1771965301.4026291,282464.46875,708410.4375,708938.4375,708959.75,708822.5625,708849.75,709196.75,709548.3125,0.0
1771965301.402676,282514.4375,708139.125,708667.375,708688.5625,708551.5625,708578.875,708925.75,709277.1875,0.0
1771965301.410014,282571.9375,708075.375,708603.4375,708624.8125,708488.125,708514.8125,708862.1875,709214.0,0.0
1771965301.4125733,282523.90625,708332.375,708860.0625,708881.6875,708744.4375,708771.25,709118.875,709470.6875,0.0
1771965301.4147491,282461.96875,708431.3125,708958.9375,708980.9375,708843.5,708870.125,709217.9375,709569.6875,0.0
1771965301.4172337,282505.3125,708186.625,708714.5,708736.375,708599.125,708625.8125,708973.3125,709324.875,0.0
1771965301.41725,282562.71875,708058.0625,708585.625,708607.75,708470.375,708497.375,708844.5625,709196.1875,0.0
1771965301.419884,282541.34375,708285.625,708813.25,708835.5625,708698.1875,708724.75,709072.125,709423.9375,0.0
1771965301.427688,282467.59375,708446.875,708974.3125,708996.3125,708859.5,708886.0625,709233.25,709585.0625,0.0
1771965301.4277606,282491.03125,708240.1875,708767.875,708789.6875,708653.0,708679.625,709026.5,709378.625,0.0
1771965301.4277806,282567.09375,708053.875,708581.4375,708603.4375,708466.5625,708493.375,708840.25,709192.1875,0.0
1771965301.4297285,282548.78125,708238.1875,708765.875,708787.8125,708651.125,708677.625,709024.875,709376.625,0.0
1771965301.4323485,282467.6875,708445.1875,708972.6875,708995.25,708857.8125,708884.375,709231.6875,709583.3125,0.0
1771965301.4324005,282474.03125,708288.625,708816.25,708838.5625,708701.5,708728.1875,709075.5,709426.875,0.0
1771965301.4353487,282552.78125,708060.3125,708588.125,708610.3125,708473.4375,708500.0625,708847.25,709198.625,0.0
1771965301.4376144,282545.5625,708191.0,708719.0625,708740.875,708604.0625,708630.6875,708977.625,709329.4375,0.0
1771965301.4436707,282480.375,708439.1875,708968.125,708989.6875,708852.6875,708879.1875,709226.0625,709578.125,0.0
1771965301.4472263,282468.125,708341.75,708869.875,708891.875,708754.5625,708781.0625,709128.0,709480.375,0.0
1771965301.4839938,282538.9375,708081.375,708609.6875,708631.625,708494.4375,708520.9375,708867.8125,709219.8125,0.0
1771965301.484042,282552.09375,708145.6875,708673.625,708695.6875,708558.625,708585.0,708932.1875,709283.8125,0.0
1771965301.4862204,282492.09375,708411.9375,708939.8125,708962.3125,708824.8125,708851.375,709198.625,709550.25,0.0
1771965301.4862733,282466.15625,708383.5625,708911.5625,708933.625,708796.5625,708823.3125,709170.4375,709521.9375,0.0
1771965301.4886832,282527.75,708111.8125,708639.5625,708661.3125,708524.75,708551.5625,708898.5625,709250.0625,0.0
1771965301.4911585,282560.75,708109.8125,708637.75,708659.5625,708522.875,708549.375,708896.5,709248.25,0.0
1771965301.4962316,282496.125,708378.3125,708906.0625,708927.8125,708790.75,708817.5625,709164.8125,709516.4375,0.0
1771965301.4984188,282467.40625,708421.6875,708949.625,708971.4375,708834.5625,708861.375,709208.5625,709560.1875,0.0
1771965301.501687,282522.5,708155.0625,708683.75,708705.125,708568.1875,708594.875,708941.875,709293.6875,0.0
1771965301.506006,282562.375,708083.5625,708611.875,708633.75,708496.9375,708523.4375,708870.3125,709222.3125,0.0
1771965301.5089233,282519.0,708338.25,708866.125,708888.125,708751.4375,708778.125,709124.875,709476.875,0.0
1771965301.5115657,282462.0625,708446.4375,708974.375,708996.375,708859.875,708886.0625,709232.875,709585.125,0.0
1771965301.5138433,282512.90625,708205.3125,708733.5,708755.3125,708618.3125,708644.9375,708991.75,709343.9375,0.0
1771965301.5163908,282572.09375,708069.6875,708598.4375,708620.0625,708482.625,708509.3125,708856.375,709208.4375,0.0
1771965301.5223336,282538.21875,708290.9375,708819.5625,708841.5625,708704.125,708730.75,709078.125,709430.125,0.0
1771965301.5223947,282470.375,708460.6875,708988.9375,709011.125,708873.875,708900.25,709247.625,709599.625,0.0
1771965301.52542,282500.21875,708260.0,708787.875,708810.0,708672.8125,708699.5625,709046.5625,709398.5625,0.0
1771965301.52765,282575.5,708065.375,708593.1875,708615.0625,708478.0625,708504.9375,708852.0625,709203.8125,0.0
1771965301.531586,282558.0625,708244.1875,708771.875,708794.0625,708656.75,708683.8125,709030.6875,709382.5625,0.0
1771965301.5316336,282492.90625,708462.1875,708989.9375,709012.1875,708874.6875,708901.6875,709248.5,709600.5,0.0
1771965301.5316443,282505.3125,708312.0625,708839.75,708861.8125,708724.5,708751.5,709098.5,709450.1875,0.0
1771965301.5351691,282573.71875,708075.0625,708602.8125,708624.625,708487.8125,708514.375,708861.375,709213.125,0.0
1771965301.5651684,282573.53125,708197.25,708724.9375,708746.875,708610.125,708636.9375,708983.6875,709335.875,0.0
1771965301.5652387,282511.65625,708447.8125,708975.4375,708997.25,708860.375,708887.0625,709234.375,709586.1875,0.0
1771965301.5773716,282490.75,708357.6875,708885.3125,708907.25,708769.9375,708796.625,709144.4375,709495.75,0.0
1771965301.5774107,282557.1875,708093.3125,708620.625,708642.5,708505.8125,708532.125,708879.625,709231.375,0.0
1771965301.5810168,282579.71875,708152.125,708679.875,708701.3125,708565.0625,708591.625,708938.625,709290.375,0.0
1771965301.5810325,282510.5,708420.875,708948.5625,708970.1875,708833.3125,708860.3125,709207.5625,709558.9375,0.0
1771965301.58104,282486.0,708401.625,708929.0625,708950.9375,708813.875,708840.75,709188.5,709539.6875,0.0
1771965301.581046,282542.4375,708128.875,708656.625,708678.375,708541.375,708568.3125,708915.5625,709266.8125,0.0
1771965301.5887415,282570.84375,708118.125,708645.8125,708667.4375,708530.5625,708557.75,708905.125,709256.5,0.0
1771965301.5888095,282508.53125,708383.875,708911.625,708933.25,708796.3125,708823.8125,709170.9375,709522.5625,0.0
1771965301.5888371,282464.1875,708432.5625,708960.5625,708982.25,708845.3125,708872.3125,709219.125,709571.25,0.0
1771965301.5914216,282517.21875,708167.75,708695.875,708717.1875,708580.5625,708607.1875,708954.0,709305.8125,0.0
1771965301.5941148,282572.375,708088.875,708617.1875,708638.5,708501.875,708528.6875,708875.625,709227.3125,0.0
1771965301.5959895,282526.34375,708337.875,708866.0,708887.875,708750.875,708777.5,709124.6875,709476.75,0.0
1771965301.5989103,282467.3125,708453.125,708981.1875,709002.8125,708866.1875,708892.5625,709239.75,709591.75,0.0
1771965301.6010034,282508.28125,708216.375,708743.875,708766.0625,708628.9375,708655.5,709002.8125,709354.4375,0.0
1771965301.6086812,282570.40625,708072.0,708599.625,708621.4375,708484.5,708511.375,708858.25,709210.0625,0.0
1771965301.6110137,282536.96875,708288.125,708815.8125,708837.0625,708700.875,708727.4375,709074.625,709426.1875,0.0
1771965301.6136408,282474.75,708463.625,708991.1875,709012.8125,708876.5,708903.0625,709250.375,709601.75,0.0
1771965301.6136773,282499.15625,708270.3125,708798.0625,708819.5625,708683.1875,708709.75,709056.9375,709408.5625,0.0
1771965301.6175263,282563.0625,708070.8125,708598.625,708620.25,708483.5625,708510.375,708857.6875,709208.8125,0.0
1771965301.6561902,282548.0625,708239.3125,708767.3125,708789.125,708651.75,708678.8125,709026.0625,709377.25,0.0
1771965301.6562572,282476.4375,708461.5625,708989.5625,709011.5,708873.8125,708900.625,709248.0625,709599.5,0.0
1771965301.6991258,282479.5625,708318.4375,708846.375,708868.375,708731.125,708757.5625,709104.8125,709456.5625,0.0
1771965301.6992254,282548.875,708076.75,708604.6875,708627.0625,708489.5625,708516.1875,708863.25,709215.25,0.0
1771965301.6992457,282547.15625,708191.625,708719.6875,708741.5,708604.3125,708631.25,708978.0625,709330.125,0.0
1771965301.7009418,282476.09375,708445.625,708973.9375,708995.125,708858.625,708885.0,709232.0625,709583.9375,0.0
1771965301.7041724,282464.90625,708364.25,708892.25,708913.875,708777.25,708803.4375,709150.6875,709502.5,0.0
1771965301.7061024,282541.09375,708098.625,708626.625,708647.9375,708511.25,708537.625,708885.0,709236.625,0.0
1771965301.7211585,282562.8125,708149.0625,708676.75,708698.5625,708561.75,708587.5,708935.4375,709286.875,0.0
1771965301.724033,282492.8125,708421.6875,708949.4375,708971.25,708834.125,708860.375,709207.8125,709559.375,0.0
1771965301.7265277,282464.0,708409.3125,708937.1875,708958.8125,708821.875,708848.3125,709195.5625,709547.125,0.0
1771965301.7265985,282526.59375,708136.4375,708664.4375,708685.9375,708548.8125,708575.5625,708923.0625,709274.375,0.0
1771965301.7287936,282562.625,708115.625,708643.6875,708665.125,708528.625,708554.875,708902.25,709253.8125,0.0
1771965301.731038,282512.125,708382.6875,708910.5625,708932.0,708795.125,708821.4375,709168.9375,709520.6875,0.0
1771965301.731089,282470.90625,708440.5625,708968.875,708990.5625,708853.25,708880.0,709227.5,709578.875,0.0
1771965301.7341998,282509.15625,708179.375,708707.5,708729.25,708592.0,708619.25,708966.1875,709317.6875,0.0
1771965301.7364392,282552.34375,708089.0625,708617.3125,708638.75,708501.9375,708528.5,708875.9375,709227.125,0.0
1771965301.7390337,282515.4375,708338.375,708866.3125,708888.1875,708751.3125,708777.5,709125.0625,709476.4375,0.0
1771965301.7410114,282461.875,708467.125,708994.9375,709016.9375,708879.6875,708906.1875,709253.8125,709605.0,0.0
1771965301.7441294,282499.5,708233.1875,708760.8125,708782.625,708645.75,708672.1875,709019.5625,709370.9375,0.0
1771965301.7464247,282555.03125,708079.875,708607.375,708629.1875,708492.1875,708518.75,708866.1875,709218.0,0.0
1771965301.748912,282513.90625,708290.9375,708818.5625,708840.8125,708703.5,708730.375,709077.3125,709429.5,0.0
1771965301.751306,282448.1875,708475.0625,709002.625,709025.0,708887.5625,708914.3125,709261.0,709613.3125,0.0
1771965301.7560937,282470.375,708288.5625,708816.4375,708838.5,708701.3125,708728.4375,709075.125,709426.5,0.0
1771965301.7612314,282538.75,708079.6875,708607.375,708629.1875,708492.6875,708519.25,708866.1875,709217.875,0.0
1771965301.7676656,282527.40625,708244.3125,708771.875,708793.3125,708657.0,708683.1875,709030.6875,709382.1875,0.0
1771965301.7747822,282461.15625,708472.1875,708999.9375,709021.625,708884.625,708911.0625,709258.375,709610.0625,0.0
1771965301.7771883,282474.46875,708338.5,708866.9375,708888.75,708751.75,708778.25,709125.25,709477.0625,0.0
1771965301.7772074,282541.625,708094.0625,708622.375,708643.875,708507.0625,708534.0625,708880.75,709232.4375,0.0
1771965301.781533,282542.25,708200.375,708728.1875,708749.8125,708612.9375,708640.125,708987.0,709338.75,0.0
1771965301.781603,282470.0,708457.25,708984.875,709007.1875,708869.875,708896.625,709243.75,709595.6875,0.0
1771965301.7816248,282454.4375,708385.9375,708913.6875,708935.875,708798.4375,708825.0625,709172.4375,709524.3125,0.0
1771965301.7838569,282526.25,708121.25,708649.3125,708671.3125,708533.875,708560.625,708908.0625,709259.5,0.0
1771965301.78392,282545.65625,708163.125,708691.0625,708712.9375,708575.625,708602.625,708949.8125,709301.4375,0.0
1771965301.788657,282478.5,708431.875,708959.75,708982.0625,708844.5,708871.375,709218.5,709570.9375,0.0
1771965301.7909012,282450.15625,708429.8125,708957.6875,708979.75,708842.5,708869.0,709216.25,709568.3125,0.0
1771965301.7961893,282511.84375,708157.3125,708685.25,708707.0625,708570.1875,708596.4375,708944.0,709295.875,0.0
1771965301.7962384,282550.21875,708128.125,708655.9375,708678.0,708540.9375,708567.3125,708914.875,709266.5,0.0
1771965301.8061879,282499.875,708391.625,708919.25,708941.375,708804.25,708830.4375,709178.125,709529.9375,0.0
1771965301.806229,282455.6875,708457.625,708985.5,709007.3125,708870.3125,708896.875,709244.3125,709596.1875,0.0
1771965301.8085203,282514.53125,708202.375,708730.5,708752.125,708614.8125,708641.5,708989.25,709340.75,0.0
1771965301.8109615,282567.71875,708108.0625,708635.8125,708657.6875,708520.625,708547.0,708894.625,709246.25,0.0
1771965301.8136427,282516.6875,708348.5625,708876.3125,708898.3125,708761.3125,708787.6875,709135.4375,709487.125,0.0
1771965301.8197007,282459.09375,708480.0,709007.5625,709029.75,708892.5625,708918.9375,709266.6875,709618.3125,0.0
1771965301.8197176,282495.5625,708252.625,708780.125,708802.375,708664.875,708691.25,709038.875,709390.5625,0.0
1771965301.8224287,282559.40625,708089.6875,708618.0,708639.625,708502.5,708529.125,708876.5,709228.125,0.0
1771965301.8246615,282525.53125,708295.875,708824.25,708845.75,708708.6875,708735.3125,709082.75,709434.375,0.0
1771965301.8273425,282459.09375,708485.9375,709014.25,709036.0,708898.75,708925.1875,709272.8125,709624.5625,0.0
1771965301.8321795,282475.8125,708302.5,708830.5625,708852.1875,708715.125,708741.5,709089.1875,709440.625,0.0
1771965301.8347645,282547.875,708090.625,708618.8125,708640.5625,708503.1875,708530.1875,708877.375,709228.8125,0.0
1771965301.8371947,282533.65625,708249.0625,708776.875,708799.0,708661.75,708688.1875,709035.625,709387.5625,0.0
1771965301.8396852,282464.71875,708480.6875,709008.875,709030.8125,708893.625,708919.9375,709267.4375,709619.75,0.0
1771965301.842361,282468.5,708353.0,708881.25,708902.5,708766.0,708792.1875,709139.4375,709491.625,0.0
1771965301.842396,282537.15625,708104.125,708631.9375,708653.5,708517.1875,708543.0625,708890.375,709242.25,0.0
1771965301.8473632,282540.0,708203.25,708731.1875,708753.125,708616.5,708642.3125,708989.5625,709341.6875,0.0
1771965301.849816,282478.40625,708462.6875,708990.5625,709012.375,708875.875,708902.0625,709249.375,709601.375,0.0
1771965301.852183,282452.40625,708396.8125,708924.875,708946.6875,708809.8125,708836.0,709183.875,709535.625,0.0
1771965301.8573952,282517.84375,708128.125,708656.0,708677.8125,708541.125,708567.0625,708914.5625,709266.6875,0.0
1771965301.8574324,282547.625,708161.4375,708689.25,708710.9375,708574.0,708600.3125,708947.5625,709299.5625,0.0
1771965301.862798,282482.96875,708432.5625,708960.0625,708982.0,708844.8125,708871.3125,709218.8125,709571.25,0.0
1771965301.8652897,282445.5,708438.5,708966.5,708988.3125,708851.4375,708877.75,709224.9375,709577.25,0.0
1771965301.8671815,282512.03125,708168.8125,708697.25,708718.75,708582.1875,708608.375,708955.6875,709307.3125,0.0
1771965301.8735356,282557.34375,708132.0,708660.125,708681.5625,708545.25,708571.5,708918.6875,709270.3125,0.0
1771965301.873589,282494.59375,708393.75,708921.5625,708943.375,708806.75,708833.1875,709180.1875,709532.4375,0.0
1771965301.8811383,282447.5625,708468.375,708996.375,709018.3125,708881.25,708907.4375,709254.75,709606.9375,0.0
1771965301.8872955,282494.9375,708211.5,708739.3125,708761.3125,708624.625,708651.25,708998.625,709350.4375,0.0
1771965301.887342,282556.375,708109.8125,708637.4375,708659.5,708522.6875,708549.5,708896.6875,709248.6875,0.0
1771965301.8940723,282508.0,708349.0625,708876.5,708898.5,708761.25,708788.125,709135.5,709487.5,0.0
1771965301.894143,282444.78125,708486.6875,709014.625,709036.1875,708899.375,708926.0,709273.375,709625.375,0.0
1771965301.9013,282480.5625,708262.6875,708790.9375,708812.5,708675.75,708702.25,709049.5625,709401.5,0.0
1771965301.9013548,282546.625,708096.4375,708624.375,708646.0625,708509.1875,708535.9375,708883.1875,709234.75,0.0
1771965301.932782,282513.8125,708298.5,708826.6875,708848.125,708711.5625,708737.625,709085.1875,709437.0625,0.0
1771965301.932856,282448.625,708494.125,709022.0625,709043.9375,708906.875,708933.1875,709280.875,709632.6875,0.0
1771965301.9352665,282467.15625,708316.8125,708844.75,708866.75,708729.25,708756.3125,709103.5,709455.3125,0.0
1771965301.9353373,282542.875,708098.9375,708627.125,708648.9375,708511.625,708538.625,708885.6875,709237.6875,0.0
1771965301.937708,282536.53125,708249.375,708777.5,708799.6875,708661.9375,708689.0,709036.375,709388.4375,0.0
1771965301.9401956,282469.375,708486.3125,709014.0625,709035.625,708898.5625,708925.9375,709272.75,709624.9375,0.0
1771965301.9425673,282470.09375,708366.6875,708894.375,708915.75,708779.0625,708805.875,709153.0,709505.125,0.0
1771965301.947683,282544.75,708115.75,708643.875,708665.3125,708528.6875,708555.1875,708902.6875,709254.3125,0.0
1771965301.9499333,282542.25,708206.3125,708734.3125,708756.6875,708619.4375,708646.0625,708993.375,709345.1875,0.0
1771965301.9527411,282468.84375,708467.75,708995.75,709017.5625,708880.5,708907.4375,709254.0625,709606.25,0.0
1771965301.9548721,282456.25,708413.8125,708941.875,708963.9375,708826.5,708853.0625,709200.125,709552.4375,0.0
1771965301.9604375,282524.0,708143.4375,708671.9375,708693.75,708556.6875,708583.3125,708930.3125,709282.5,0.0
1771965301.9605393,282551.71875,708166.875,708695.25,708716.625,708580.1875,708606.9375,708953.625,709305.4375,0.0
1771965301.9651172,282493.15625,708437.4375,708965.6875,708987.25,708850.5,708876.9375,709224.3125,709576.125,0.0
1771965301.9677567,282456.5,708454.125,708982.625,709004.1875,708867.1875,708893.5625,709240.9375,709593.0625,0.0
1771965301.9678435,282506.03125,708184.375,708712.4375,708734.125,708597.0625,708623.9375,708970.8125,709323.375,0.0
1771965301.9701931,282547.0,708138.0,708666.3125,708687.9375,708550.4375,708577.625,708924.4375,709276.875,0.0
1771965301.972548,282499.0625,708396.375,708924.5625,708946.6875,708809.0625,708836.375,709183.25,709535.0625,0.0
1771965301.9788504,282450.875,708481.375,709009.5,709031.25,708894.5625,708920.8125,709268.0625,709620.1875,0.0
1771965301.9900143,282497.375,708230.4375,708759.1875,708780.625,708643.75,708669.875,709017.3125,709369.1875,0.0
1771965301.9900863,282555.46875,708116.25,708645.0,708666.375,708529.6875,708555.5,708903.0625,709255.0625,0.0
1771965301.9965577,282511.3125,708351.75,708880.0625,708901.6875,708764.4375,708791.125,709138.625,709489.9375,0.0
1771965301.9966297,282450.34375,708500.375,709028.75,709050.5,708912.8125,708939.875,709287.5,709638.75,0.0
1771965302.0002434,282474.75,708279.9375,708808.875,708830.0625,708693.1875,708719.6875,709067.3125,709419.0,0.0
1771965302.0137885,282538.3125,708104.625,708633.1875,708654.3125,708517.8125,708544.3125,708891.875,709243.4375,0.0
1771965302.0138364,282512.28125,708304.0,708831.9375,708853.6875,708716.75,708743.375,709090.625,709442.5,0.0
1771965302.013847,282448.625,708506.8125,709034.75,709056.3125,708919.5,708946.3125,709293.5625,709645.5,0.0
1771965302.0612998,282470.28125,708334.9375,708862.875,708884.375,708747.625,708774.5,709121.625,709473.75,0.0
1771965302.0613525,282536.53125,708111.6875,708639.625,708661.4375,708524.5,708551.125,708898.1875,709250.3125,0.0
1771965302.0635893,282531.15625,708256.125,708783.6875,708805.5625,708668.25,708695.1875,709042.4375,709394.3125,0.0
1771965302.0636048,282462.125,708495.625,709023.3125,709045.3125,708907.9375,708934.875,709281.9375,709634.0625,0.0
1771965302.0662255,282459.625,708386.375,708914.25,708936.375,708798.6875,708825.8125,709172.6875,709525.0625,0.0
1771965302.0662405,282535.625,708130.125,708658.5,708679.875,708542.5625,708569.3125,708916.625,709268.625,0.0
1771965302.0662484,282545.71875,708211.3125,708739.4375,708760.8125,708624.1875,708650.375,708998.0625,709350.0,0.0
1771965302.0715191,282473.59375,708476.125,709003.875,709026.0,708888.9375,708915.5,709262.8125,709614.875,0.0
1771965302.0715866,282450.875,708431.875,708959.4375,708981.625,708844.375,708871.375,709218.1875,709570.3125,0.0
1771965302.071606,282519.90625,708156.75,708684.6875,708706.5,708569.3125,708596.125,708943.1875,709295.25,0.0
1771965302.0716834,282543.0625,708171.5,708699.3125,708721.1875,708583.75,708610.5625,708957.6875,709309.5625,0.0
1771965302.0717068,282482.15625,708441.375,708969.3125,708990.6875,708853.6875,708880.25,709227.3125,709579.75,0.0
1771965302.073666,282444.96875,708466.1875,708993.875,709015.8125,708879.1875,708905.25,709252.6875,709604.875,0.0
1771965302.0737133,282497.53125,708197.625,708725.1875,708747.375,708610.3125,708637.0625,708984.3125,709336.3125,0.0
1771965302.1106892,282536.4375,708139.0,708666.9375,708688.625,708551.875,708578.3125,708925.5625,709277.5,0.0
1771965302.116196,282482.25,708396.75,708924.5625,708946.0625,708809.25,708835.625,709183.0,709535.0,0.0
1771965302.1162372,282432.375,708493.3125,709020.8125,709042.8125,708905.625,708932.25,709279.625,709631.6875,0.0
1771965302.119084,282477.4375,708244.5625,708772.3125,708794.0625,708656.8125,708683.9375,709031.4375,709383.0,0.0
1771965302.1202211,282532.59375,708121.0,708649.375,708670.5625,708533.625,708560.25,708908.125,709259.4375,0.0
1771965302.1217368,282497.28125,708350.875,708879.0625,708900.625,708763.5625,708790.3125,709138.0,709489.3125,0.0
1771965302.1230936,282433.875,708506.625,709034.5625,709056.0,708918.875,708945.75,709293.125,709644.9375,0.0
1771965302.1264954,282467.875,708292.6875,708820.6875,708842.1875,708705.5625,708732.0,709079.0,709430.875,0.0
1771965302.1376388,282530.625,708111.0,708639.125,708660.6875,708523.875,708550.125,708897.5,709249.5625,0.0
1771965302.1401868,282506.125,708302.0625,708829.5625,708851.1875,708714.5,708740.875,709088.5625,709440.375,0.0
1771965302.1402576,282436.125,708508.125,709035.1875,709057.0625,708920.125,708946.9375,709294.75,709646.375,0.0
1771965302.141507,282448.8125,708345.4375,708873.1875,708894.8125,708757.6875,708784.9375,709132.0,709483.75,0.0
1771965302.1429904,282528.21875,708119.75,708648.0625,708669.25,708532.625,708559.625,708906.4375,709258.5,0.0
1771965302.144768,282518.1875,708256.4375,708784.25,708805.9375,708668.875,708695.6875,709042.8125,709395.0625,0.0
1771965302.1447845,282447.21875,708501.1875,709029.0,709050.9375,708913.75,708940.4375,709287.875,709639.5625,0.0
1771965302.1447923,282444.625,708395.375,708923.25,708945.0,708808.0625,708834.125,709181.875,709533.625,0.0
1771965302.1448004,282519.34375,708136.1875,708663.8125,708685.8125,708548.8125,708575.125,708922.5625,709274.8125,0.0
1771965302.1474392,282536.6875,708212.3125,708740.4375,708762.5,708625.25,708651.625,708999.25,709351.125,0.0
1771965302.1475096,282466.53125,708478.6875,709006.875,709028.75,708891.5,708917.875,709265.875,709617.875,0.0
1771965302.1490192,282434.6875,708439.125,708967.0625,708988.8125,708851.8125,708878.1875,709225.875,709578.25,0.0
1771965302.1827276,282499.5,708169.125,708696.875,708718.5,708581.4375,708608.1875,708955.5,709307.625,0.0
1771965302.1827984,282536.34375,708178.5,708706.25,708727.875,708590.9375,708617.6875,708965.0,709317.0625,0.0
1771965302.1828187,282479.65625,708445.5625,708973.125,708994.9375,708857.5625,708884.375,709232.0,709583.9375,0.0
1771965302.182833,282430.65625,708477.5625,709005.6875,709027.5,708890.4375,708916.75,709264.625,709616.3125,0.0
1771965302.184138,282489.9375,708209.5,708737.75,708759.375,708622.375,708648.75,708996.5625,709348.125,0.0
1771965302.1862133,282543.78125,708146.1875,708674.4375,708696.0625,708558.9375,708585.5,708933.25,709284.75,0.0
1771965302.18917,282495.3125,708401.75,708929.75,708951.5625,708814.5,708841.25,709188.625,709540.3125,0.0
1771965302.189257,282444.53125,708503.3125,709031.6875,709053.6875,708916.4375,708943.1875,709290.4375,709642.625,0.0
1771965302.1898932,282484.03125,708257.4375,708785.8125,708807.625,708670.25,708697.0625,709044.1875,709396.5,0.0
1771965302.191518,282537.875,708128.125,708656.625,708678.125,708540.75,708567.6875,708914.9375,709267.0,0.0
1771965302.1927204,282503.34375,708354.375,708882.3125,708904.0,708766.9375,708793.625,709140.9375,709493.125,0.0
1771965302.2274072,282431.90625,708517.5,709045.8125,709067.125,708930.3125,708956.875,709304.125,709656.1875,0.0
1771965302.2275064,282458.84375,708310.625,708839.375,708860.6875,708723.6875,708750.25,709097.4375,709449.125,0.0
1771965302.2302036,282526.6875,708120.125,708649.1875,708670.6875,708533.875,708560.25,708907.4375,709259.0625,0.0
1771965302.2302756,282503.8125,708304.75,708833.5625,708855.0625,708717.875,708744.6875,709092.125,709443.625,0.0
1771965302.230296,282435.59375,708519.75,709048.0,709069.6875,708932.625,708959.5625,709307.0,709658.5625,0.0
1771965302.2315676,282443.71875,708361.75,708889.75,708911.4375,708774.8125,708801.3125,709148.8125,709500.5625,0.0
1771965302.2324345,282514.34375,708125.9375,708654.5,708675.875,708538.875,708566.0,708912.9375,709264.8125,0.0
1771965302.2566545,282513.28125,708255.125,708783.125,708804.6875,708668.0,708694.75,709042.0,709393.8125,0.0
1771965302.263898,282446.75,708506.875,709034.9375,709056.75,708919.3125,708946.125,709294.0,709645.5,0.0
1771965302.2662275,282437.1875,708412.4375,708940.3125,708962.0625,708824.4375,708851.4375,709199.0625,709550.4375,0.0
