timestamps,Fz,C3,Cz,C4,Pz,PO7,Oz,PO8,stim
1775427356.3805006,237007.71875,718697.75,267312.3125,719271.1875,719123.9375,249429.203125,220433.359375,224857.84375,0.0
1775427356.3834507,236995.375,718695.3125,267300.78125,719269.0625,719121.75,249423.390625,220427.734375,224816.890625,0.0
1775427356.386104,236997.078125,718695.625,267295.9375,719269.4375,719121.875,249423.03125,220426.203125,224795.171875,0.0
1775427356.3861508,237001.546875,718699.375,267293.25,719272.75,719125.9375,249422.859375,220427.640625,224811.171875,0.0
1775427356.3884616,237011.734375,718703.8125,267297.1875,719277.375,719130.875,249428.046875,220433.625,224852.125,0.0
1775427356.3909009,237004.3125,718704.4375,267291.90625,719278.4375,719131.0,249430.015625,220433.0,224838.265625,0.0
1775427356.3931508,237003.6875,718705.0,267290.5625,719279.0625,719131.5625,249433.234375,220434.796875,224809.75,0.0
1775427356.39764,237005.578125,718702.875,267287.8125,719276.875,719129.5625,249434.84375,220433.0,224815.015625,0.0
1775427356.397692,237008.515625,718701.5,267285.84375,719275.25,719128.1875,249431.078125,220433.453125,224842.5625,0.0
1775427356.4155219,236994.3125,718700.8125,267270.625,719274.25,719127.4375,249420.625,220429.875,224840.40625,0.0
1775427356.4184897,236995.828125,718694.5625,267266.71875,719268.25,719121.0,249422.328125,220430.953125,224792.84375,0.0
1775427356.4185085,236999.765625,718694.0,267264.8125,719267.75,719120.625,249425.09375,220433.453125,224803.84375,0.0
1775427356.4204328,237005.390625,718700.1875,267265.28125,719273.6875,719126.5625,249429.921875,220439.4375,224830.3125,0.0
1775427356.4234896,237006.375,718701.0,267264.375,719274.8125,719127.6875,249434.125,220443.015625,224852.65625,0.0
1775427356.4259114,237003.96875,718695.875,267260.53125,719269.5,719122.625,249436.1875,220437.921875,224804.375,0.0
1775427356.4281373,237005.84375,718696.875,267255.25,719270.875,719123.625,249431.71875,220434.96875,224815.203125,0.0
1775427356.432781,237007.984375,718700.4375,267253.46875,719274.3125,719127.375,249430.015625,220434.796875,224828.34375,0.0
1775427356.4328516,237006.828125,718700.625,267249.53125,719274.0625,719127.0,249437.25,220435.6875,224855.4375,0.0
1775427356.4405973,236997.25,718697.25,267238.625,719270.4375,719123.25,249432.0625,220430.671875,224801.78125,0.0
1775427356.4434955,237002.4375,718699.875,267238.375,719273.375,719126.375,249431.0,220432.828125,224812.25,0.0
1775427356.4435096,237007.09375,718700.0625,267239.96875,719273.5625,719126.625,249434.21875,220436.765625,224825.390625,0.0
1775427356.452045,237009.6875,718702.125,267237.28125,719275.6875,719128.875,249436.265625,220437.828125,224861.953125,0.0
1775427356.4547927,237002.984375,718701.625,267231.65625,719274.875,719128.0,249440.828125,220437.921875,224811.0,0.0
1775427356.4636166,237009.328125,718702.5,267231.5625,719276.125,719128.8125,249442.265625,220440.15625,224803.9375,0.0
1775427356.4636607,237013.96875,718705.625,267230.125,719279.375,719132.0,249443.953125,220441.859375,224815.015625,0.0
1775427356.4658296,237015.234375,718707.4375,267227.53125,719280.875,719133.5,249442.0,220440.15625,224855.703125,0.0
1775427356.4721627,237007.71875,718705.4375,267221.03125,719278.875,719131.75,249444.40625,220439.4375,224819.046875,0.0
1775427356.476494,237011.65625,718706.3125,267220.3125,719279.8125,719132.625,249447.09375,220440.875,224800.796875,0.0
1775427356.4766035,237012.640625,718708.375,267219.59375,719281.6875,719134.875,249446.828125,220444.984375,224816.359375,0.0
1775427356.4843433,237018.984375,718712.25,267217.875,719285.5,719138.25,249446.375,220450.609375,224852.5625,0.0
1775427356.4985485,237009.0625,718710.375,267206.09375,719284.0,719136.5,249445.390625,220445.78125,224840.5,0.0
1775427356.4985883,237011.5625,718707.5625,267202.96875,719280.875,719133.8125,249449.234375,220445.15625,224805.90625,0.0
1775427356.501806,237018.625,718708.125,267205.46875,719281.5,719134.4375,249455.84375,220445.96875,224815.109375,0.0
1775427356.5018263,237019.609375,718708.75,267198.3125,719282.5,719135.5625,249449.0625,220447.9375,224842.5625,0.0
1775427356.5018344,237016.03125,718712.25,267190.4375,719285.6875,719138.625,249450.3125,220449.546875,224846.046875,0.0
1775427356.50563,237014.421875,718710.75,267188.125,719284.1875,719136.625,249453.796875,220448.46875,224803.84375,0.0
1775427356.5195105,237015.046875,718710.8125,267182.40625,719284.0625,719136.8125,249452.09375,220446.5,224809.921875,0.0
1775427356.522727,237020.5,718713.9375,267179.90625,719287.0625,719140.25,249452.71875,220447.125,224827.625,0.0
1775427356.5228245,237016.65625,718714.8125,267174.71875,719288.1875,719141.3125,249451.203125,220445.609375,224842.203125,0.0
1775427356.5313487,237010.671875,718710.8125,267169.875,719283.9375,719137.125,249450.390625,220442.03125,224789.265625,0.0
1775427356.5314236,237016.03125,718710.4375,267168.0,719283.9375,719136.9375,249450.484375,220442.65625,224795.078125,0.0
1775427356.5336792,237020.328125,718711.625,267167.71875,719284.875,719138.1875,249454.328125,220445.078125,224805.1875,0.0
1775427356.5337377,237018.71875,718713.5625,267162.71875,719286.75,719140.0625,249455.21875,220447.390625,224837.8125,0.0
1775427356.541937,237008.96875,718710.875,267151.46875,719284.375,719137.5625,249452.984375,220443.109375,224792.9375,0.0
1775427356.557084,237019.34375,718710.8125,267153.0625,719284.1875,719137.8125,249454.421875,220445.078125,224803.390625,0.0
1775427356.55716,237026.3125,718712.875,267156.46875,719286.125,719139.5,249461.03125,220451.0625,224817.96875,0.0
1775427356.5571911,237026.40625,718715.8125,267153.78125,719289.625,719142.5625,249462.828125,220457.40625,224861.234375,0.0
1775427356.5598528,237014.25,718712.0,267140.90625,719285.9375,719138.6875,249460.140625,220451.328125,224816.625,0.0
1775427356.5598996,237018.625,718709.5,267139.75,719283.0,719135.875,249460.859375,220448.46875,224803.578125,0.0
1775427356.5621345,237015.578125,718708.5,267131.625,719282.0625,719134.6875,249459.609375,220447.125,224801.609375,0.0
1775427356.565969,237022.015625,718713.3125,267131.34375,719286.875,719140.25,249460.671875,220453.296875,224844.96875,0.0
1775427356.5806153,237015.578125,718713.3125,267127.15625,719286.875,719140.25,249462.734375,220450.96875,224818.59375,0.0
1775427356.5806897,237024.609375,718715.4375,267129.28125,719288.8125,719141.8125,249465.421875,220453.296875,224802.046875,0.0
1775427356.5823865,237028.8125,718715.25,267130.28125,719288.5625,719142.1875,249470.15625,220456.515625,224812.609375,0.0
1775427356.5824273,237035.609375,718716.625,267132.3125,719290.25,719143.8125,249473.546875,220460.625,224846.21875,0.0
1775427356.5881605,237030.0625,718714.5,267127.78125,719288.375,719141.375,249470.328125,220462.421875,224828.25,0.0
1775427356.5950396,237029.0,718714.5,267122.5,719288.375,719140.9375,249471.046875,220465.453125,224794.09375,0.0
1775427356.5951116,237029.71875,718717.3125,267118.125,719291.125,719143.8125,249469.625,220466.625,224807.0625,0.0
1775427356.5977943,237036.328125,718720.4375,267117.75,719293.375,719146.75,249471.671875,220468.5,224836.75,0.0
1775427356.59787,237036.953125,718719.375,267118.1875,719292.5,719145.6875,249478.296875,220472.34375,224843.8125,0.0
1775427356.6109123,237036.59375,718716.6875,267114.0,719290.4375,719143.25,249477.125,220470.828125,224798.296875,0.0
1775427356.6140165,237034.625,718718.5,267105.0625,719292.25,719145.0625,249473.734375,220467.15625,224804.375,0.0
1775427356.6141248,237040.34375,718720.9375,267107.375,719294.8125,719147.75,249476.5,220471.53125,224828.25,0.0
1775427356.6155665,237041.25,718723.625,267106.3125,719296.9375,719149.8125,249480.265625,220474.125,224853.546875,0.0
1775427356.6269658,237032.578125,718718.875,267096.90625,719292.3125,719145.0,249476.953125,220467.6875,224795.890625,0.0
1775427356.6298933,237038.296875,718719.125,267094.0625,719293.125,719145.9375,249474.359375,220468.046875,224805.546875,0.0
1775427356.6299424,237043.921875,718720.375,267095.65625,719294.75,719147.5625,249477.21875,220473.0625,224824.859375,0.0
1775427356.640511,237043.21875,718723.25,267092.8125,719297.3125,719150.5,249480.171875,220477.078125,224864.28125,0.0
1775427356.6430702,237034.359375,718720.375,267083.96875,719294.125,719147.1875,249477.671875,220475.734375,224809.390625,0.0
1775427356.6461487,237038.109375,718722.6875,267082.4375,719296.25,719149.4375,249474.53125,220473.765625,224810.546875,0.0
1775427356.6461985,237040.34375,718721.375,267078.0625,719295.1875,719148.375,249473.546875,220475.46875,224820.03125,0.0
1775427356.6521163,237044.734375,718722.0,267076.90625,719295.625,719148.75,249475.515625,220479.140625,224859.1875,0.0
1775427356.6553078,237037.125,718721.25,267070.09375,719295.1875,719148.25,249473.828125,220474.125,224816.0,0.0
1775427356.6553607,237040.171875,718720.8125,267068.125,719294.4375,719147.3125,249471.234375,220472.609375,224798.296875,0.0
1775427356.663081,237039.1875,718721.375,267065.09375,719295.0,719147.5625,249472.84375,220472.703125,224797.859375,0.0
1775427356.667283,237046.515625,718727.375,267066.0625,719300.625,719153.1875,249474.359375,220475.734375,224841.65625,0.0
1775427356.6673024,237037.578125,718724.25,267056.6875,719297.5625,719150.5,249473.90625,220470.109375,224814.578125,0.0
1775427356.6759417,237043.390625,718721.375,267059.1875,719294.8125,719148.125,249479.640625,220473.234375,224794.546875,0.0
1775427356.6787152,237039.1875,718722.0625,267052.9375,719295.625,719148.875,249476.0625,220473.953125,224800.71875,0.0
1775427356.6787703,237038.296875,718724.5,267047.75,719298.5,719151.25,249471.765625,220474.9375,224832.359375,0.0
1775427356.6807122,237034.625,718722.5,267045.5,719296.4375,719148.875,249474.8125,220473.140625,224822.34375,0.0
1775427356.694666,237031.328125,718722.8125,267041.5,719296.5,719149.25,249474.09375,220465.1875,224781.578125,0.0
1775427356.6976895,237034.546875,718723.125,267036.84375,719296.9375,719149.8125,249472.390625,220465.453125,224789.1875,0.0
1775427356.6977649,237042.046875,718723.875,267037.90625,719298.0625,719150.5,249478.109375,220471.890625,224821.8125,0.0
1775427356.699314,237040.0,718725.9375,267038.1875,719300.0,719152.3125,249482.765625,220478.78125,224834.515625,0.0
1775427356.7032976,237034.1875,718725.1875,267033.25,719299.375,719151.875,249477.125,220480.296875,224791.421875,0.0
1775427356.7176356,237033.828125,718725.5,267027.4375,719298.75,719151.5625,249473.90625,220476.453125,224794.984375,0.0
1775427356.717688,237038.65625,718724.6875,267023.96875,719298.6875,719150.9375,249473.375,220475.65625,224806.96875,0.0
1775427356.7269104,237036.78125,718727.1875,267017.15625,719301.1875,719153.8125,249472.921875,220476.640625,224833.703125,0.0
1775427356.729694,237036.15625,718727.4375,267017.625,719301.1875,719154.4375,249478.203125,220479.9375,224790.796875,0.0
1775427356.7323854,237034.984375,718727.8125,267012.53125,719301.8125,719154.5625,249472.84375,220477.890625,224801.609375,0.0
1775427356.7345116,237038.109375,718726.75,267011.4375,719300.375,719153.1875,249474.0,220476.8125,224814.390625,0.0
1775427356.737151,237039.546875,718728.4375,267007.5,719302.5,719154.875,249476.859375,220478.78125,224850.25,0.0
1775427356.739719,237032.390625,718725.1875,267003.125,719299.3125,719151.9375,249480.34375,220475.734375,224797.578125,0.0
1775427356.742212,237040.171875,718728.0,267005.5625,719301.5,719154.375,249476.859375,220476.984375,224794.09375,0.0
1775427356.7459834,237040.625,718729.6875,267001.71875,719303.5625,719155.875,249475.515625,220477.703125,224796.515625,0.0
1775427356.7548685,237046.15625,718731.4375,267003.59375,719305.5625,719158.0,249476.59375,220485.9375,224837.640625,0.0
1775427356.7549095,237038.203125,718731.0,266994.5625,719305.1875,719157.5,249477.21875,220481.640625,224802.953125,0.0
1775427356.7593083,237042.140625,718730.8125,266992.75,719304.3125,719157.0625,249479.09375,220480.203125,224790.34375,0.0
1775427356.7618365,237042.234375,718731.5625,266987.03125,719304.5625,719157.875,249479.09375,220479.859375,224799.90625,0.0
1775427356.7756495,237046.078125,718733.1875,266985.78125,719306.1875,719159.25,249477.484375,220484.6875,224840.953125,0.0
1775427356.7795937,237038.03125,718733.4375,266979.875,719306.1875,719159.625,249478.734375,220481.546875,224819.3125,0.0
1775427356.7796695,237040.96875,718732.0625,266976.03125,719304.9375,719158.3125,249479.453125,220478.59375,224794.359375,0.0
1775427356.7796896,237042.578125,718731.375,266973.8125,719304.375,719157.75,249480.171875,220478.421875,224799.1875,0.0
1775427356.782043,237048.390625,718733.25,266976.21875,719306.375,719159.375,249482.5,220485.21875,224835.3125,0.0
1775427356.7845597,237042.40625,718732.25,266968.25,719305.1875,719158.3125,249483.390625,220481.734375,224830.578125,0.0
1775427356.786791,237047.0625,718731.375,266969.15625,719304.75,719157.5625,249486.25,220483.515625,224792.75,0.0
1775427356.7957313,237044.28125,718733.0,266963.25,719306.625,719159.0,249482.765625,220483.78125,224801.421875,0.0
1775427356.7983923,237049.296875,718735.375,266965.03125,719309.1875,719161.75,249487.140625,220486.46875,224824.5,0.0
1775427356.8021023,237045.890625,718733.625,266962.90625,719307.25,719160.0625,249489.375,220486.734375,224832.453125,0.0
1775427356.8169384,237039.28125,718732.375,266954.75,719306.25,719159.0,249486.703125,220483.96875,224789.625,0.0
1775427356.8170123,237046.15625,718735.125,266955.21875,719309.1875,719161.875,249485.53125,220484.953125,224803.21875,0.0
1775427356.8188229,237052.234375,718737.625,266961.03125,719311.25,719164.3125,249487.859375,220489.515625,224822.625,0.0
1775427356.8188877,237051.53125,718736.375,266959.5,719310.3125,719163.6875,249488.578125,220491.390625,224842.90625,0.0
1775427356.8236592,237050.1875,718734.3125,266955.21875,719308.3125,719161.25,249490.90625,220493.625,224792.484375,0.0
1775427356.8318255,237055.546875,718735.5625,266951.90625,719309.1875,719162.375,249489.5625,220491.828125,224794.90625,0.0
1775427356.8361268,237057.34375,718735.375,266948.3125,719309.375,719162.5625,249489.5625,220490.578125,224802.046875,0.0
1775427356.8361757,237058.953125,718740.75,266945.8125,719314.75,719167.5,249490.546875,220492.640625,224837.640625,0.0
1775427356.8429627,237060.203125,718739.75,266947.15625,719313.4375,719166.625,249495.546875,220497.640625,224788.640625,0.0
1775427356.843038,237058.671875,718735.875,266937.875,719309.5,719162.5625,249483.75,220489.59375,224781.9375,0.0
1775427356.849004,237055.453125,718735.75,266931.53125,719309.1875,719162.25,249481.328125,220484.6875,224789.453125,0.0
1775427356.8490794,237062.34375,718740.875,266934.75,719314.5,719167.5,249481.875,220487.984375,224830.671875,0.0
1775427356.8618867,237059.390625,718738.5,266935.28125,719312.3125,719165.5625,249486.96875,220490.9375,224789.984375,0.0
1775427356.8679993,237068.6875,718737.625,266939.375,719311.0,719164.0,249494.65625,220494.15625,224777.5625,0.0
1775427356.86811,237063.6875,718737.1875,266929.0,719310.8125,719163.9375,249491.703125,220491.125,224785.6875,0.0
1775427356.8703291,237069.234375,718740.75,266927.9375,719314.5,719167.3125,249491.171875,220499.875,224823.609375,0.0
1775427356.870416,237061.8125,718739.25,266924.53125,719313.125,719166.0625,249495.453125,220498.359375,224805.0,0.0
1775427356.875763,237068.25,718739.875,266924.28125,719314.1875,719166.875,249499.03125,220499.25,224779.796875,0.0
1775427356.8849695,237071.015625,718741.3125,266920.4375,719315.75,719168.0625,249497.609375,220500.328125,224789.453125,0.0
1775427356.8851047,237078.53125,718745.6875,266923.28125,719319.5,719172.25,249500.90625,220506.234375,224829.0625,0.0
1775427356.8874493,237076.5625,718745.5,266921.6875,719319.3125,719172.0,249506.640625,220508.109375,224824.40625,0.0
1775427356.887546,237075.046875,718741.1875,266918.03125,719314.875,719167.9375,249503.0625,220504.53125,224778.1875,0.0
1775427356.895908,237074.765625,718741.5625,266912.5625,719314.875,719168.1875,249499.75,220501.578125,224787.296875,0.0
1775427356.9001615,237079.15625,718744.625,266911.9375,719317.8125,719170.875,249503.859375,220505.78125,224811.359375,0.0
1775427356.900284,237081.296875,718745.0625,266915.15625,719318.3125,719171.5,249510.125,220514.546875,224827.71875,0.0
1775427356.9081626,237079.953125,718744.3125,266911.21875,719318.0,719171.375,249510.75,220515.890625,224784.0,0.0
1775427356.9225967,237079.6875,718745.6875,266905.9375,719319.5,719172.75,249509.5,220514.90625,224789.453125,0.0
1775427356.922646,237080.9375,718746.6875,266901.3125,719320.3125,719173.25,249512.890625,220514.984375,224806.078125,0.0
1775427356.9254513,237077.71875,718748.4375,266892.71875,719321.9375,719174.8125,249509.671875,220511.953125,224826.640625,0.0
1775427356.9255,237068.15625,718745.875,266884.5,719319.5,719172.625,249505.828125,220507.03125,224770.859375,0.0
1775427356.9255085,237071.375,718747.125,266881.625,719320.3125,719173.3125,249503.328125,220509.0,224778.0,0.0
1775427356.929679,237073.25,718746.5625,266881.0,719320.3125,719173.125,249506.28125,220509.265625,224787.296875,0.0
1775427356.9383683,237072.359375,718748.0625,266877.4375,719321.75,719174.5,249507.96875,220509.890625,224822.0,0.0
1775427356.9418163,237067.796875,718746.125,266873.84375,719319.75,719172.75,249511.109375,220508.734375,224772.109375,0.0
1775427356.941881,237073.703125,718747.625,266869.5625,719321.0,719174.125,249507.171875,220507.03125,224772.546875,0.0
1775427356.9472475,237076.734375,718747.5625,266865.34375,719320.75,719174.0,249509.9375,220505.875,224785.78125,0.0
1775427356.951518,237080.671875,718750.875,266861.875,719324.75,719177.5,249512.171875,220508.109375,224829.328125,0.0
1775427356.9516063,237070.03125,718748.75,266852.3125,719322.5625,719175.1875,249509.5,220502.203125,224789.09375,0.0
1775427356.9596517,237080.578125,718748.1875,266857.5,719322.0,719174.375,249511.015625,220506.140625,224775.40625,0.0
1775427356.963684,237085.6875,718748.8125,266860.4375,719322.1875,719174.9375,249516.296875,220514.09375,224787.125,0.0
1775427356.9637334,237085.6875,718751.75,266857.03125,719325.0625,719177.8125,249514.40625,220518.390625,224826.28125,0.0
1775427356.9695396,237077.640625,718750.25,266849.25,719323.8125,719176.4375,249514.328125,220514.546875,224798.75,0.0
1775427356.9980683,237079.515625,718750.625,266848.28125,719324.125,719176.625,249517.09375,220516.328125,224771.296875,0.0
1775427357.0008688,237076.921875,718752.1875,266842.65625,719325.5,719177.9375,249519.15625,220515.703125,224787.84375,0.0
1775427357.003392,237084.421875,718756.6875,266844.15625,719329.75,719182.5,249522.453125,220521.0625,224828.96875,0.0
1775427357.005916,237082.546875,718757.0625,266842.03125,719330.0625,719183.0625,249527.375,220524.375,224824.671875,0.0
1775427357.011027,237084.078125,718752.125,266840.9375,719325.5,719177.9375,249531.21875,220526.4375,224779.25,0.0
1775427357.013592,237085.328125,718751.5,266835.75,719324.6875,719177.4375,249530.0625,220525.0,224784.703125,0.0
1775427357.0159132,237089.078125,718752.375,266834.6875,719325.75,719178.5,249528.984375,220526.171875,224803.03125,0.0
1775427357.0181618,237086.65625,718754.25,266828.875,719327.375,719179.75,249527.375,220528.21875,224816.453125,0.0
1775427357.0209253,237082.8125,718750.75,266820.65625,719323.875,719176.4375,249528.53125,220524.375,224761.828125,0.0
1775427357.0237122,237091.3125,718754.0625,266819.40625,719327.4375,719180.5625,249527.109375,220527.15625,224774.875,0.0
1775427357.0260928,237096.046875,718756.125,266821.09375,719329.75,719182.875,249528.625,220531.53125,224794.453125,0.0
1775427357.0261388,237095.78125,718756.875,266819.40625,719330.375,719183.625,249530.78125,220532.6875,224822.625,0.0
1775427357.0359347,237092.5625,718753.4375,266819.3125,719327.0,719179.8125,249533.359375,220532.25,224773.71875,0.0
1775427357.0405965,237095.15625,718755.0625,266819.3125,719328.4375,719181.25,249532.921875,220529.390625,224783.375,0.0
1775427357.043744,237091.84375,718756.125,266809.5625,719329.75,719182.0625,249525.59375,220524.640625,224789.8125,0.0
1775427357.0437968,237089.34375,718758.625,266801.625,719331.8125,719184.3125,249520.9375,220523.21875,224823.953125,0.0
1775427357.0459423,237083.890625,718755.9375,266798.5625,719329.4375,719182.0625,249525.140625,220521.25,224778.453125,0.0
1775427357.0482955,237096.046875,718756.25,266805.53125,719329.75,719182.3125,249530.5,220524.921875,224782.203125,0.0
1775427357.0530877,237099.53125,718757.1875,266805.09375,719331.0,719183.625,249533.8125,220527.328125,224801.15625,0.0
1775427357.0581956,237102.046875,718759.8125,266804.65625,719334.0625,719186.25,249533.1875,220529.828125,224842.375,0.0
1775427357.0604844,237090.6875,718756.25,266790.53125,719330.0625,719182.6875,249530.328125,220523.75,224800.265625,0.0
1775427357.0640254,237089.96875,718755.625,266783.71875,719329.5,719182.0625,249531.75,220525.546875,224777.203125,0.0
1775427357.0640776,237093.734375,718756.6875,266781.59375,719330.125,719183.0,249535.15625,220526.515625,224786.140625,0.0
1775427357.0659173,237095.96875,718761.25,266777.375,719334.875,719187.5,249535.328125,220527.5,224831.109375,0.0
1775427357.0683224,237079.421875,718759.0,266764.6875,719333.0625,719185.75,249528.984375,220523.3125,224814.390625,0.0
1775427357.0824275,237086.21875,718758.9375,266767.46875,719332.4375,719184.9375,249533.8125,220527.328125,224787.578125,0.0
1775427357.0824857,237090.953125,718759.625,266766.65625,719333.1875,719185.3125,249539.71875,220526.875,224799.46875,0.0
1775427357.084626,237095.609375,718761.875,266767.28125,719335.125,719187.8125,249534.796875,220529.296875,224829.859375,0.0
1775427357.087174,237091.046875,718761.4375,266765.125,719334.6875,719186.625,249535.421875,220532.0625,224822.890625,0.0
1775427357.0891926,237094.265625,718760.0,266765.84375,719333.375,719185.9375,249540.515625,220535.640625,224780.421875,0.0
1775427357.0956156,237098.28125,718762.6875,266764.6875,719336.3125,719188.75,249544.71875,220537.609375,224791.5,0.0
1775427357.1002572,237099.0,718765.6875,266759.40625,719339.5,719191.625,249544.625,220538.953125,224815.640625,0.0
1775427357.100331,237095.515625,718765.8125,266754.03125,719339.625,719191.9375,249541.5,220538.59375,224831.828125,0.0
1775427357.1114342,237085.40625,718762.0625,266745.90625,719335.875,719188.75,249535.875,220531.171875,224774.25,0.0
1775427357.120568,237089.796875,718763.5625,266743.3125,719337.125,719189.6875,249535.609375,220530.640625,224781.765625,0.0
1775427357.120639,237095.609375,718766.25,266741.34375,719339.875,719192.6875,249537.75,220530.453125,224803.390625,0.0
1775427357.1206596,237101.0625,718768.5625,266741.15625,719341.875,719194.5625,249539.890625,220531.703125,224833.171875,0.0
1775427357.124071,237096.40625,718767.5625,266736.25,719341.125,719193.625,249543.015625,220531.796875,224785.0625,0.0
1775427357.1241195,237104.640625,718767.9375,266736.875,719341.875,719194.125,249547.046875,220532.953125,224795.34375,0.0
1775427357.1259477,237106.0625,718768.75,266735.0,719342.5,719195.0625,249548.484375,220535.109375,224808.21875,0.0
1775427357.1479857,237105.890625,718772.0625,266731.875,719345.875,719198.25,249548.484375,220538.6875,224842.828125,0.0
1775427357.1609726,237103.65625,718771.0,266728.75,719344.8125,719197.125,249553.84375,220539.21875,224797.5,0.0
1775427357.1610577,237108.921875,718771.4375,266725.53125,719345.125,719197.4375,249549.546875,220538.6875,224795.96875,0.0
1775427357.161095,237105.890625,718771.875,266719.90625,719345.3125,719197.5625,249546.59375,220537.34375,224807.15625,0.0
1775427357.163653,237110.265625,718776.0625,266720.53125,719349.0625,719201.9375,249550.359375,220542.265625,224852.484375,0.0
1775427357.1665566,237105.625,718778.125,266717.65625,719351.25,719204.3125,249557.15625,220541.359375,224823.328125,0.0
1775427357.166633,237105.703125,718777.25,266716.40625,719350.9375,719203.5625,249560.015625,220541.90625,224807.78125,0.0
1775427357.170696,237105.4375,718777.5,266712.5625,719350.9375,719203.6875,249564.5625,220544.140625,224823.875,0.0
1775427357.1734643,237105.34375,718778.875,266707.5625,719352.1875,719204.875,249560.640625,220547.53125,224862.21875,0.0
1775427357.1759202,237099.0,718777.6875,266704.4375,719351.4375,719204.25,249562.609375,220548.15625,224840.140625,0.0
1775427357.17821,237100.25,718773.125,266703.09375,719346.75,719199.5,249563.3125,220544.578125,224802.140625,0.0
1775427357.183107,237098.203125,718770.25,266695.84375,719344.1875,719196.5625,249554.921875,220540.46875,224805.625,0.0
1775427357.18578,237101.0625,718769.8125,266690.84375,719343.625,719195.9375,249547.9375,220539.046875,224836.5625,0.0
1775427357.1882253,237099.8125,718769.4375,266683.9375,719343.4375,719195.5625,249549.734375,220539.3125,224842.015625,0.0
1775427357.1908123,237102.671875,718770.4375,266680.28125,719344.4375,719196.9375,249551.25,220536.625,224803.03125,0.0
1775427357.194526,237111.34375,718773.3125,266683.0625,719347.1875,719199.9375,249554.640625,220538.0625,224822.625,0.0
1775427357.2040927,237114.375,718775.875,266683.5,719349.6875,719202.625,249558.671875,220542.703125,224845.5,0.0
1775427357.204168,237103.734375,718776.375,266673.3125,719350.0625,719202.8125,249553.75,220540.296875,224856.859375,0.0
1775427357.2061105,237098.28125,718774.125,266669.5625,719347.8125,719200.5625,249555.09375,220541.71875,224811.359375,0.0
1775427357.2061577,237100.96875,718774.5625,266667.84375,719347.8125,719200.375,249553.3125,220543.875,224823.953125,0.0
1775427357.21426,237106.328125,718776.6875,266667.5,719350.3125,719203.0,249555.71875,220546.375,224843.265625,0.0
1775427357.2181857,237106.875,718779.0,266664.46875,719353.0,719205.5,249557.859375,220550.3125,224875.375,0.0
1775427357.2274752,237096.671875,718774.8125,266657.3125,719348.75,719201.9375,249557.328125,220545.65625,224817.078125,0.0
1775427357.2275696,237104.640625,718776.0,266657.5625,719349.375,719202.5625,249556.4375,220545.390625,224823.328125,0.0
1775427357.2297044,237111.25,718778.5625,266656.25,719352.3125,719205.0625,249558.046875,220549.140625,224837.546875,0.0
1775427357.232252,237110.984375,718780.1875,266649.0,719353.4375,719206.375,249559.390625,220550.9375,224878.3125,0.0
1775427357.2455428,237103.46875,718778.375,266639.6875,719351.6875,719204.3125,249558.046875,220548.609375,224830.21875,0.0
1775427357.2486,237110.53125,718778.125,266643.28125,719351.75,719204.1875,249560.453125,220551.46875,224823.15625,0.0
1775427357.2486463,237111.515625,718780.125,266640.59375,719353.625,719206.375,249562.953125,220552.984375,224833.34375,0.0
1775427357.250913,237106.328125,718782.8125,266632.0,719356.125,719208.875,249554.640625,220550.578125,224876.265625,0.0
1775427357.2529576,237095.515625,718779.625,266623.34375,719353.125,719205.6875,249554.015625,220546.375,224839.34375,0.0
1775427357.2594411,237104.546875,718778.9375,266626.28125,719352.375,719205.5,249560.09375,220548.78125,224819.671875,0.0
1775427357.2712305,237103.65625,718779.625,266620.90625,719353.625,719206.8125,249558.40625,220545.75,224828.15625,0.0
1775427357.2713199,237111.421875,718781.25,266623.96875,719354.625,719208.0,249566.09375,220553.4375,224865.359375,0.0
1775427357.273514,237105.4375,718780.625,266618.40625,719353.9375,719206.8125,249568.6875,220557.453125,224852.296875,0.0
1775427357.2755144,237110.09375,718780.25,266618.9375,719353.4375,719206.6875,249569.484375,220562.90625,224824.046875,0.0
1775427357.2779627,237113.21875,718780.5625,266617.0625,719354.125,719206.375,249571.359375,220563.890625,224830.75,0.0
1775427357.2844017,237122.34375,718783.75,266620.5625,719357.25,719210.0625,249573.59375,220569.171875,224857.9375,0.0
1775427357.2899694,237115.546875,718783.75,266616.625,719356.875,719210.0,249573.6875,220567.109375,224852.03125,0.0
1775427357.2900152,237110.890625,718779.75,266607.40625,719352.9375,719205.9375,249569.578125,220558.984375,224802.140625,0.0
1775427357.2918565,237112.5,718781.875,266603.5625,719355.0625,719208.375,249566.625,220555.3125,224815.28125,0.0
1775427357.3056777,237111.609375,718781.4375,266598.375,719354.4375,719207.625,249560.546875,220551.734375,224832.984375,0.0
1775427357.308916,237114.109375,718782.1875,266597.59375,719355.4375,719208.4375,249562.421875,220553.34375,224849.625,0.0
1775427357.3090098,237114.46875,718779.75,266595.34375,719352.9375,719206.1875,249566.171875,220552.359375,224796.25,0.0
1775427357.3114083,237115.28125,718780.8125,266590.6875,719353.75,719206.5625,249564.03125,220552.984375,224805.265625,0.0
1775427357.31146,237114.296875,718780.8125,266586.21875,719353.8125,719206.6875,249563.671875,220556.390625,224817.609375,0.0
1775427357.3242693,237113.3125,718782.6875,266585.0625,719355.8125,719208.8125,249563.765625,220559.328125,224848.453125,0.0
1775427357.3275287,237106.953125,718780.1875,266582.84375,719353.75,719206.375,249565.734375,220556.109375,224801.78125,0.0
1775427357.327601,237108.921875,718781.4375,266581.21875,719354.875,719207.375,249564.65625,220556.828125,224809.46875,0.0
1775427357.3300965,237109.640625,718783.0625,266576.65625,719356.625,719208.875,249565.203125,220557.90625,224820.296875,0.0
1775427357.330146,237116.53125,718785.625,266576.125,719358.8125,719211.6875,249571.546875,220563.09375,224862.5,0.0
1775427357.343286,237109.640625,718783.5625,266568.25,719357.0625,719209.8125,249569.84375,220557.28125,224817.703125,0.0
1775427357.3554432,237109.90625,718784.6875,266565.5,719357.875,719210.875,249569.125,220553.96875,224809.203125,0.0
1775427357.3555024,237113.9375,718785.9375,266563.6875,719358.8125,719212.0,249569.75,220557.015625,224820.46875,0.0
1775427357.355514,237119.203125,718788.6875,266562.28125,719361.6875,719214.6875,249572.265625,220563.984375,224860.890625,0.0
1775427357.3586266,237113.03125,718789.125,266559.84375,719362.4375,719215.5,249579.6875,220566.40625,224831.109375,0.0
1775427357.3586757,237117.59375,718787.6875,266558.0625,719360.5,719213.5625,249574.9375,220565.953125,224808.3125,0.0
1775427357.3630817,237119.03125,718786.8125,266557.625,719359.8125,719212.8125,249575.390625,220566.671875,224817.515625,0.0
1775427357.3655448,237126.359375,718790.125,266560.3125,719363.8125,719216.25,249581.203125,220571.765625,224854.625,0.0
1775427357.368646,237117.859375,718789.125,266552.0625,719362.9375,719215.125,249583.53125,220572.203125,224836.828125,0.0
1775427357.3823092,237123.765625,718789.3125,266554.03125,719362.5625,719215.125,249587.09375,220573.640625,224803.03125,0.0
1775427357.385388,237129.578125,718790.75,266552.96875,719364.4375,719216.875,249587.546875,220574.359375,224814.921875,0.0
1775427357.385462,237133.15625,718792.625,266548.59375,719366.4375,719219.0625,249586.5625,220575.609375,224841.9375,0.0
1775427357.387269,237131.71875,718793.125,266545.46875,719367.0625,719220.0,249588.359375,220579.625,224846.765625,0.0
1775427357.3872852,237129.484375,718790.75,266543.03125,719364.8125,719217.1875,249587.640625,220577.21875,224801.15625,0.0
1775427357.3955643,237130.109375,718792.0625,266540.1875,719366.4375,719218.4375,249588.4375,220578.109375,224809.46875,0.0
1775427357.4023783,237129.046875,718791.4375,266536.59375,719364.9375,719217.375,249587.28125,220579.1875,224819.3125,0.0
1775427357.4024184,237126.625,718790.5625,266530.78125,719363.75,719216.4375,249584.78125,220581.15625,224832.984375,0.0
1775427357.4202733,237118.3125,718788.125,266521.40625,719362.125,719214.25,249582.984375,220578.46875,224780.59375,0.0
1775427357.42035,237126.453125,718791.0,266521.6875,719364.625,719217.3125,249584.15625,220582.765625,224789.453125,0.0
1775427357.4219332,237134.671875,718791.75,266522.9375,719365.0,719217.5625,249590.234375,220586.96875,224802.953125,0.0
1775427357.424677,237133.15625,718790.8125,266516.9375,719364.375,719216.6875,249586.203125,220585.890625,224835.578125,0.0
1775427357.4269457,237121.53125,718788.6875,266507.375,719361.9375,719214.4375,249585.9375,220580.703125,224778.546875,0.0
1775427357.4296837,237130.734375,718790.625,266511.84375,719364.1875,719217.125,249591.65625,220584.375,224775.234375,0.0
1775427357.4321785,237131.015625,718793.625,266510.15625,719367.3125,719220.25,249596.21875,220586.15625,224787.578125,0.0
1775427357.4345365,237136.90625,718796.1875,266513.28125,719369.625,719222.6875,249597.296875,220592.78125,224834.515625,0.0
1775427357.4408267,237132.265625,718792.625,266511.84375,719366.25,719218.8125,249601.3125,220591.703125,224792.21875,0.0
1775427357.4451241,237138.34375,718791.75,266512.75,719364.75,719217.5625,249601.671875,220591.96875,224780.6875,0.0
1775427357.4452107,237139.59375,718791.375,266511.03125,719365.0,719217.75,249600.0625,220590.359375,224788.28125,0.0
1775427357.4568937,237146.828125,718793.6875,266509.59375,719367.4375,719220.1875,249600.953125,220594.390625,224829.859375,0.0
1775427357.4677765,237143.890625,718792.1875,266504.25,719365.875,719218.375,249604.09375,220595.1875,224803.65625,0.0
1775427357.4678533,237140.21875,718791.25,266495.3125,719364.75,719217.5,249598.546875,220589.828125,224776.75,0.0
1775427357.4752812,237136.734375,718792.375,266488.96875,719366.1875,719218.625,249595.140625,220588.390625,224777.5625,0.0
1775427357.4753563,237140.75,718793.25,266488.40625,719367.4375,719220.0,249594.875,220590.625,224810.453125,0.0
1775427357.4768796,237135.125,718791.125,266484.84375,719364.8125,719217.75,249596.40625,220590.53125,224798.75,0.0
1775427357.479422,237133.6875,718791.1875,266479.5625,719364.625,719217.75,249595.5,220588.390625,224759.671875,0.0
1775427357.4821758,237138.515625,718793.0,266479.03125,719366.875,719219.625,249598.984375,220590.09375,224769.953125,0.0
1775427357.4843843,237149.15625,718797.0,266485.03125,719370.75,719223.5625,249601.234375,220595.453125,224802.328125,0.0
1775427357.4868853,237141.5625,718798.25,266477.59375,719372.0625,719224.875,249601.140625,220593.3125,224807.515625,0.0
1775427357.4896736,237138.609375,718793.6875,266474.65625,719367.75,719220.5,249602.921875,220592.140625,224758.15625,0.0
1775427357.4955838,237138.78125,718793.875,266469.5625,719367.75,719220.25,249598.453125,220588.578125,224768.609375,0.0
1775427357.500272,237140.21875,718798.25,266468.9375,719372.4375,719224.875,249598.453125,220589.5625,224792.046875,0.0
1775427357.5003831,237141.296875,718799.875,266471.15625,719373.9375,719226.3125,249600.59375,220590.984375,224819.484375,0.0
1775427357.5130513,237139.59375,718798.25,266471.34375,719372.0625,719225.1875,249603.90625,220588.84375,224770.40625,0.0
1775427357.516013,237145.671875,718799.4375,266470.1875,719373.25,719226.125,249607.3125,220592.421875,224781.9375,0.0
1775427357.5160332,237149.609375,718800.125,266468.9375,719374.3125,719226.625,249611.6875,220599.390625,224794.09375,0.0
1775427357.5222173,237151.484375,718802.4375,266466.0625,719376.875,719229.0,249614.640625,220602.515625,224827.71875,0.0
1775427357.524968,237145.9375,718801.1875,266464.09375,719376.0,719228.0,249619.015625,220599.921875,224776.390625,0.0
1775427357.526904,237155.859375,718801.375,266469.71875,719375.8125,719228.125,249619.46875,220601.796875,224777.28125,0.0
1775427357.52955,237155.5,718798.9375,266466.15625,719373.5,719226.25,249617.234375,220597.15625,224787.03125,0.0
1775427357.538942,237155.5,718799.4375,266460.875,719374.0625,719226.625,249613.828125,220597.515625,224823.15625,0.0
1775427357.5390434,237148.09375,718796.5625,266453.28125,719370.375,719223.375,249611.6875,220597.0625,224776.578125,0.0
1775427357.5404415,237155.234375,718798.4375,266454.53125,719372.25,719225.4375,249616.6875,220603.0625,224765.671875,0.0
1775427357.5468006,237156.765625,718801.625,266451.65625,719375.8125,719228.5625,249615.703125,220603.765625,224777.734375,0.0
1775427357.5512822,237166.953125,718807.1875,266456.9375,719380.8125,719233.375,249621.875,220609.5,224826.1875,0.0
1775427357.5513542,237160.78125,718807.375,266451.59375,719381.375,719233.8125,249623.75,220610.921875,224799.109375,0.0
1775427357.5566,237154.796875,718804.75,266443.09375,719379.125,719231.875,249620.359375,220610.65625,224766.921875,0.0
1775427357.5633252,237148.71875,718802.875,266434.9375,719377.1875,719230.0625,249617.140625,220606.1875,224769.953125,0.0
1775427357.5696833,237145.84375,718804.9375,266424.21875,719378.9375,719231.625,249611.78125,220605.46875,224802.5,0.0
1775427357.576756,237141.65625,718804.625,266421.53125,719378.875,719230.875,249614.546875,220608.421875,224793.828125,0.0
1775427357.57986,237142.28125,718802.4375,266423.0625,719377.0,719229.4375,249616.96875,220605.296875,224756.71875,0.0
1775427357.5799005,237145.140625,718802.75,266422.78125,719377.1875,719229.375,249613.296875,220600.90625,224770.578125,0.0
1775427357.5816965,237155.15625,718806.9375,266429.0625,719381.625,719234.375,249616.6875,220607.265625,224801.078125,0.0
1775427357.5842006,237153.890625,718809.3125,266428.6875,719384.3125,719236.8125,249619.734375,220607.171875,224810.375,0.0
1775427357.5932555,237146.5625,718807.1875,266420.8125,719381.625,719234.375,249617.140625,220601.359375,224760.75,0.0
1775427357.6036077,237147.1875,718804.9375,266415.1875,719379.1875,719231.625,249612.5,220597.25,224769.78125,0.0
1775427357.6037292,237154.171875,718806.625,266416.71875,719380.5,719232.5,249616.515625,220603.953125,224789.71875,0.0
1775427357.60376,237152.90625,718807.1875,266411.71875,719381.1875,719233.5625,249611.328125,220606.8125,224815.5625,0.0
1775427357.6059568,237151.9375,718805.9375,266410.71875,719379.5,719232.4375,249615.625,220608.78125,224766.828125,0.0
1775427357.608209,237159.703125,718807.4375,266410.53125,719381.4375,719234.5625,249617.046875,220609.578125,224776.84375,0.0
1775427357.6124172,237160.609375,718806.3125,266405.625,719380.8125,719233.375,249614.28125,220609.140625,224792.9375,0.0
1775427357.6369436,237157.65625,718807.625,266401.34375,719381.875,719234.125,249613.921875,220610.46875,224826.828125,0.0
1775427357.640001,237155.234375,718806.125,266399.625,719380.125,719232.6875,249615.4375,220608.6875,224775.40625,0.0
1775427357.6401033,237159.984375,718805.6875,266395.34375,719379.3125,719232.3125,249615.265625,220603.40625,224773.4375,0.0
1775427357.642192,237161.765625,718804.125,266392.46875,719377.875,719230.8125,249615.0,220602.078125,224781.671875,0.0
1775427357.6445725,237167.390625,718807.0,266394.4375,719380.5625,719233.5625,249620.1875,220608.953125,224824.40625,0.0
1775427357.650518,237160.421875,718805.375,266389.4375,719379.3125,719232.125,249622.78125,220608.15625,224785.0625,0.0
1775427357.653194,237160.609375,718806.3125,266383.71875,719380.0,719232.9375,249619.734375,220606.453125,224773.890625,0.0
1775427357.65595,237163.46875,718806.0,266382.75,719379.9375,719232.5,249621.4375,220607.609375,224785.609375,0.0
1775427357.6580389,237171.328125,718809.1875,266386.21875,719383.25,719235.875,249626.0,220613.875,224832.28125,0.0
1775427357.6678967,237161.671875,718808.6875,266377.1875,719382.875,719235.25,249625.453125,220611.453125,224809.296875,0.0
1775427357.667974,237158.71875,718807.1875,266368.96875,719381.125,719233.5,249620.359375,220608.421875,224776.390625,0.0
1775427357.6699529,237163.734375,718808.6875,266369.40625,719382.6875,719235.25,249623.046875,220613.34375,224785.0625,0.0
1775427357.6716921,237164.0,718809.25,266365.5625,719383.4375,719236.0625,249625.640625,220617.453125,224816.1875,0.0
1775427357.678141,237149.609375,718806.5625,266353.3125,719380.5625,719233.1875,249621.96875,220613.6875,224805.1875,0.0
1775427357.681069,237151.125,718806.9375,266351.09375,719380.9375,719233.75,249623.21875,220615.125,224768.265625,0.0
1775427357.6831665,237157.734375,718807.75,266351.0,719382.0625,719235.0,249623.40625,220615.84375,224776.125,0.0
1775427357.6863961,237166.6875,718811.0625,266356.625,719385.375,719238.0625,249628.859375,220619.234375,224800.625,0.0
1775427357.68656,237164.453125,718812.75,266355.8125,719387.375,719239.5625,249632.25,220620.21875,224809.75,0.0
1775427357.6906264,237160.875,718809.5,266351.53125,719383.875,719236.625,249629.5625,220616.5625,224763.78125,0.0
1775427357.695132,237169.28125,718808.375,266352.15625,719382.8125,719235.625,249631.09375,220617.265625,224775.140625,0.0
1775427357.6952052,237170.609375,718811.0625,266349.03125,719385.0,719237.875,249628.234375,220617.359375,224792.21875,0.0
1775427357.7055087,237166.859375,718812.75,266341.25,719386.5625,719239.5,249625.546875,220620.484375,224822.703125,0.0
1775427357.711161,237161.046875,718811.9375,266333.84375,719385.8125,719238.75,249623.9375,220614.953125,224770.578125,0.0
1775427357.7112014,237174.015625,718813.1875,266340.1875,719386.875,719239.75,249632.15625,220621.390625,224780.328125,0.0
1775427357.7129648,237172.5,718813.625,266337.9375,719387.625,719240.1875,249633.140625,220624.953125,224795.890625,0.0
1775427357.7158475,237171.421875,718815.5,266335.625,719389.875,719242.4375,249632.4375,220625.3125,224835.140625,0.0
1775427357.7268744,237163.46875,718811.8125,266327.84375,719386.375,719239.1875,249631.984375,220624.15625,224786.5,0.0
1775427357.7301567,237166.328125,718812.4375,266323.375,719386.75,719239.0,249633.328125,220624.78125,224783.375,0.0
1775427357.7302651,237167.578125,718811.5,266316.84375,719385.625,719238.25,249632.078125,220621.390625,224788.015625,0.0
1775427357.7322392,237164.71875,718813.1875,266308.1875,719387.5625,719239.9375,249625.09375,220618.796875,224826.90625,0.0
1775427357.740628,237160.421875,718811.5625,266304.5,719386.125,719238.3125,249627.25,220619.859375,224791.765625,0.0
1775427357.7437449,237165.515625,718812.8125,266305.125,719387.1875,719239.5,249630.640625,220625.59375,224779.25,0.0
1775427357.7438097,237166.421875,718814.5,266305.5,719388.875,719241.375,249634.84375,220625.671875,224788.109375,0.0
1775427357.7469065,237162.5625,718819.1875,266294.40625,719393.0625,719246.0625,249630.28125,220623.4375,224825.296875,0.0
1775427357.7608967,237158.1875,718819.0,266292.0,719392.375,719245.75,249629.921875,220623.265625,224803.390625,0.0
1775427357.7794864,237161.9375,718817.75,266293.25,719391.5625,719244.6875,249631.0,220623.078125,224774.15625,0.0
1775427357.7795393,237164.171875,718819.4375,266291.28125,719392.625,719245.9375,249632.15625,220625.140625,224782.828125,0.0
1775427357.7795482,237167.3125,718820.25,266290.46875,719394.0,719247.0625,249633.765625,220629.96875,224813.859375,0.0
1775427357.782458,237166.6875,718818.5625,266289.3125,719392.5625,719245.0,249637.4375,220631.3125,224810.640625,0.0
1775427357.782563,237166.765625,718817.625,266286.09375,719391.3125,719244.5625,249635.203125,220627.015625,224770.046875,0.0
1775427357.7846181,237172.21875,718819.1875,266284.5625,719392.625,719245.9375,249637.078125,220628.265625,224782.65625,0.0
1775427357.7875268,237176.875,718820.875,266285.1875,719394.75,719247.5,249640.03125,220631.75,224809.390625,0.0
1775427357.7876296,237171.515625,718823.625,266278.5,719397.4375,719249.9375,249635.828125,220629.34375,224821.90625,0.0
1775427357.7892847,237165.78125,718819.8125,266271.78125,719393.625,719246.1875,249634.390625,220627.015625,224767.1875,0.0
1775427357.7931576,237168.03125,718819.5,266269.5625,719393.8125,719246.25,249633.859375,220630.421875,224774.609375,0.0
1775427357.7966888,237175.359375,718823.625,266273.84375,719397.75,719250.375,249637.890625,220636.578125,224801.25,0.0
1775427357.8110344,237172.140625,718824.8125,266272.3125,719398.375,719251.25,249639.9375,220638.453125,224836.03125,0.0
1775427357.811048,237166.140625,718820.0,266267.3125,719393.5,719246.375,249639.40625,220635.328125,224780.234375,0.0
1775427357.8142605,237174.015625,718820.875,266268.03125,719394.625,719247.25,249643.34375,220637.125,224786.234375,0.0
1775427357.8143113,237173.65625,718821.25,266262.84375,719395.125,719247.9375,249643.15625,220637.296875,224794.015625,0.0
1775427357.8304515,237172.3125,718821.9375,266257.3125,719395.9375,719248.6875,249641.90625,220638.1875,224829.234375,0.0
1775427357.8305712,237165.515625,718818.625,266252.65625,719392.6875,719245.0,249641.453125,220638.015625,224788.90625,0.0
1775427357.8333745,237174.28125,718819.875,266253.90625,719393.5,719246.0,249639.046875,220642.21875,224791.765625,0.0
1775427357.8334262,237179.5625,718821.9375,266255.96875,719395.5625,719248.5,249643.15625,220645.171875,224800.796875,0.0
1775427357.8334353,237177.40625,718824.0,266252.28125,719397.625,719250.375,249642.171875,220645.796875,224837.375,0.0
1775427357.8382,237163.46875,718820.0,266240.21875,719394.0625,719246.4375,249640.921875,220640.25,224790.96875,0.0
1775427357.840947,237166.859375,718819.375,266235.5,719393.25,719245.75,249639.9375,220638.640625,224775.234375,0.0
1775427357.8467836,237174.28125,718821.75,266234.6875,719395.3125,719248.125,249637.96875,220638.734375,224786.5,0.0
1775427357.856357,237180.625,718825.25,266233.6875,719398.4375,719251.4375,249640.390625,220642.3125,224828.25,0.0
1775427357.856418,237176.25,718822.6875,266228.6875,719396.1875,719249.375,249642.265625,220639.265625,224803.9375,0.0
1775427357.8586335,237174.90625,718820.625,266222.6875,719394.4375,719247.25,249641.109375,220636.046875,224769.953125,0.0
1775427357.8586853,237173.65625,718820.0,266218.0625,719394.125,719246.625,249638.875,220636.40625,224783.09375,0.0
1775427357.87726,237179.5625,718821.0625,266218.9375,719394.875,719247.625,249645.578125,220640.15625,224820.734375,0.0
1775427357.8825023,237173.921875,718825.25,266213.125,719398.625,719251.4375,249646.5625,220640.25,224825.5625,0.0
1775427357.8825717,237172.40625,718825.3125,266211.34375,719399.0,719251.8125,249646.90625,220638.546875,224789.890625,0.0
1775427357.884547,237173.5625,718824.25,266204.625,719397.8125,719250.375,249643.609375,220635.25,224799.640625,0.0
1775427357.8868203,237176.421875,718827.1875,266203.375,719400.875,719253.25,249642.984375,220639.265625,224823.515625,0.0
1775427357.8894224,237169.90625,718827.3125,266201.34375,719401.125,719253.0625,249640.65625,220637.921875,224832.8125,0.0
1775427357.8923736,237171.328125,718826.6875,266206.4375,719400.75,719252.6875,249647.359375,220638.453125,224790.078125,0.0
1775427357.8924232,237179.28125,718828.1875,266208.65625,719402.375,719254.875,249649.234375,220643.015625,224803.84375,0.0
1775427357.8944552,237178.65625,718831.5,266202.9375,719405.25,719258.0,249650.046875,220646.5,224823.609375,0.0
1775427357.903232,237179.921875,718834.75,266204.1875,719408.4375,719260.9375,249658.171875,220652.046875,224857.671875,0.0
1775427357.9073796,237177.046875,718832.125,266202.5,719405.75,719258.6875,249659.25,220652.3125,224811.4375,0.0
1775427357.9073963,237183.578125,718831.9375,266204.46875,719405.5625,719258.0625,249660.59375,220657.140625,224821.640625,0.0
1775427357.9184744,237179.28125,718831.3125,266195.34375,719404.875,719257.6875,249656.65625,220652.140625,224833.078125,0.0
1775427357.9250202,237174.90625,718831.5,266186.75,719405.75,719258.3125,249649.328125,220647.140625,224863.390625,0.0
1775427357.9250903,237167.390625,718827.375,266180.21875,719401.5,719253.75,249649.859375,220642.84375,224808.84375,0.0
1775427357.927179,237168.921875,718826.4375,266174.96875,719400.4375,719252.875,249646.46875,220636.21875,224796.25,0.0
1775427357.9293673,237169.8125,718826.5625,266173.96875,719400.3125,719252.875,249644.046875,220634.703125,224803.484375,0.0
1775427357.9356647,237171.953125,718827.75,266171.1875,719401.3125,719254.0625,249645.65625,220635.6875,224841.484375,0.0
1775427357.9379916,237166.59375,718825.9375,266163.59375,719399.3125,719252.375,249646.203125,220635.328125,224802.6875,0.0
1775427357.9419549,237173.828125,718827.0625,266166.1875,719399.9375,719253.125,249652.09375,220641.046875,224788.640625,0.0
1775427357.9515224,237174.375,718828.375,266161.90625,719401.75,719254.6875,249652.1875,220642.84375,224797.40625,0.0
1775427357.9515984,237178.3125,718829.8125,266161.625,719403.375,719256.3125,249650.046875,220647.3125,224830.9375,0.0
1775427357.953496,237167.578125,718828.1875,266150.5625,719401.75,719254.5625,249647.546875,220641.234375,224807.515625,0.0
1775427357.9567728,237170.4375,718828.5625,266145.625,719402.375,719255.1875,249649.421875,220638.640625,224779.53125,0.0
1775427357.971428,237175.796875,718830.1875,266142.6875,719404.0,719256.4375,249651.921875,220640.703125,224793.03125,0.0
1775427357.9715266,237182.5,718831.9375,266146.09375,719405.9375,719258.5,249655.40625,220646.953125,224819.9375,0.0
1775427357.977013,237176.875,718832.875,266141.59375,719406.875,719259.5,249656.390625,220646.328125,224819.671875,0.0
1775427357.9797237,237178.484375,718831.9375,266141.59375,719405.3125,719258.5,249662.65625,220647.140625,224783.90625,0.0
1775427357.98206,237183.765625,718832.6875,266142.5,719406.0625,719259.5,249663.546875,220651.421875,224799.734375,0.0
1775427357.9843082,237184.46875,718832.75,266139.90625,719406.375,719259.3125,249662.203125,220652.234375,224821.359375,0.0
1775427357.988354,237181.875,718834.1875,266136.78125,719407.75,719260.5625,249661.75,220652.3125,224833.890625,0.0
1775427357.9952705,237177.046875,718830.875,266132.03125,719404.1875,719257.1875,249661.21875,220651.0625,224779.34375,0.0
1775427357.9953537,237184.46875,718832.25,266135.0,719405.5625,719258.8125,249663.90625,220652.671875,224792.484375,0.0
1775427358.000927,237191.265625,718836.0,266137.59375,719409.25,719262.4375,249668.1875,220657.6875,224813.140625,0.0
1775427358.0100589,237187.609375,718838.3125,266132.9375,719411.375,719264.75,249668.546875,220659.5625,224844.796875,0.0
1775427358.0101328,237182.59375,718835.8125,266129.34375,719409.0625,719262.25,249672.484375,220658.125,224792.484375,0.0
1775427358.0122726,237188.046875,718834.3125,266128.1875,719407.8125,719260.6875,249672.484375,220660.09375,224794.09375,0.0
1775427358.0122857,237182.421875,718833.8125,266121.125,719407.8125,719260.9375,249671.765625,220658.9375,224800.796875,0.0
1775427358.0146914,237180.359375,718837.5625,266116.5,719411.375,719264.4375,249672.65625,220662.0625,224838.359375,0.0
1775427358.0255432,237176.515625,718835.8125,266113.1875,719409.0625,719262.1875,249676.859375,220666.53125,224799.8125,0.0
1775427358.0290706,237182.328125,718833.5625,266110.3125,719407.1875,719260.1875,249676.953125,220665.734375,224790.703125,0.0
1775427358.0291593,237181.171875,718833.5625,266104.875,719407.5,719260.3125,249670.703125,220660.09375,224795.890625,0.0
1775427358.0371923,237183.3125,718837.4375,266102.53125,719410.875,719263.875,249671.859375,220661.265625,224835.578125,0.0
1775427358.0416892,237176.15625,718834.8125,266098.25,719408.25,719261.1875,249674.453125,220663.046875,224805.71875,0.0
1775427358.0417645,237180.546875,718834.4375,266097.34375,719407.75,719260.9375,249674.625,220665.90625,224786.5,0.0
1775427358.0445347,237182.5,718835.25,266097.4375,719408.4375,719261.375,249676.0625,220666.453125,224795.796875,0.0
1775427358.0538893,237187.6875,718838.6875,266099.125,719411.5,719264.75,249677.40625,220673.234375,224837.28125,0.0
1775427358.0539408,237182.6875,718839.5625,266093.40625,719412.625,719265.6875,249678.296875,220673.515625,224824.5,0.0
1775427358.055647,237183.671875,718837.875,266092.4375,719411.5625,719264.4375,249679.1875,220671.0,224790.96875,0.0
1775427358.066936,237187.0625,718835.8125,266090.5625,719408.875,719262.4375,249678.109375,220670.5625,224798.484375,0.0
1775427358.0702708,237190.46875,718836.6875,266088.6875,719410.25,719263.4375,249677.40625,220672.796875,224830.125,0.0
1775427358.070346,237187.78125,718836.6875,266087.25,719410.6875,719263.6875,249681.328125,220672.875,224832.359375,0.0
1775427358.0799491,237191.71875,718837.5625,266086.71875,719411.125,719264.25,249684.828125,220674.21875,224790.4375,0.0
1775427358.0800233,237196.90625,718839.125,266085.8125,719412.5,719265.875,249683.578125,220673.78125,224801.421875,0.0
1775427358.0888755,237196.28125,718840.1875,266084.03125,719413.125,719266.3125,249681.15625,220672.796875,224818.140625,0.0
1775427358.0889251,237194.046875,718840.0,266082.78125,719413.1875,719266.3125,249680.0,220673.515625,224831.203125,0.0
1775427358.09094,237195.734375,718838.3125,266084.84375,719411.875,719264.625,249686.875,220675.46875,224780.859375,0.0
1775427358.0934727,237199.140625,718839.125,266083.9375,719412.625,719265.5,249687.421875,220673.78125,224788.90625,0.0
1775427358.095458,237200.65625,718841.0,266080.09375,719414.4375,719267.375,249683.921875,220674.578125,224803.125,0.0
1775427358.1067607,237198.59375,718842.625,266075.0,719416.25,719269.25,249685.453125,220679.59375,224833.171875,0.0
1775427358.1097877,237191.1875,718842.0,266068.84375,719416.0625,719268.4375,249690.8125,220680.03125,224783.1875,0.0
1775427358.1098049,237192.4375,718843.375,266066.78125,719417.5625,719269.875,249686.703125,220678.609375,224785.15625,0.0
1775427358.111836,237191.1875,718843.25,266064.09375,719416.75,719269.8125,249686.078125,220674.046875,224792.578125,0.0
1775427358.1180952,237196.09375,718845.1875,266063.90625,719418.75,719272.0,249687.234375,220676.1875,224834.953125,0.0
1775427358.1222737,237191.1875,718843.9375,266057.3125,719417.6875,719270.25,249688.578125,220675.5625,224794.984375,0.0
1775427358.1222897,237195.203125,718845.4375,266056.5,719419.25,719271.75,249688.484375,220676.09375,224789.890625,0.0
1775427358.1334665,237195.921875,718843.3125,266052.28125,719417.375,719269.9375,249688.578125,220677.078125,224793.296875,0.0
1775427358.1362488,237197.96875,718844.375,266050.0625,719418.1875,719270.9375,249689.109375,220679.40625,224827.984375,0.0
1775427358.1363845,237186.984375,718844.5625,266044.4375,719418.3125,719270.75,249686.34375,220676.640625,224791.765625,0.0
1775427358.1379654,237194.125,718846.0625,266050.21875,719419.375,719271.8125,249690.8125,220678.25,224772.015625,0.0
1775427358.147298,237198.78125,718847.5,266050.875,719421.125,719273.625,249692.59375,220679.765625,224784.796875,0.0
1775427358.151384,237199.140625,718849.5,266045.75,719423.375,719275.9375,249686.25,220682.359375,224818.421875,0.0
1775427358.1514356,237195.109375,718847.6875,266041.21875,719420.875,719273.6875,249690.8125,220684.234375,224799.8125,0.0
1775427358.1545491,237193.859375,718845.125,266036.5625,719418.375,719270.9375,249689.375,220678.0625,224761.203125,0.0
1775427358.1657937,237193.59375,718844.5,266031.46875,719418.125,719270.875,249686.078125,220672.796875,224772.375,0.0
1775427358.1690648,237194.21875,718846.25,266027.71875,719419.8125,719272.8125,249683.578125,220674.671875,224800.890625,0.0
1775427358.1691408,237190.28125,718847.0,266024.21875,719420.375,719273.375,249684.828125,220674.3125,224804.375,0.0
1775427358.172126,237196.359375,718845.4375,266026.28125,719418.8125,719272.125,249686.25,220675.390625,224764.0625,0.0
1775427358.1804984,237201.375,718847.0625,266026.28125,719421.0,719273.6875,249689.375,220679.140625,224782.65625,0.0
1775427358.1902764,237202.171875,718848.0625,266025.5625,719421.5,719274.0,249691.078125,220680.03125,224806.609375,0.0
1775427358.1903589,237198.875,718848.875,266021.625,719422.3125,719275.0625,249691.265625,220680.484375,224825.125,0.0
1775427358.1971264,237193.5,718846.1875,266016.25,719419.5625,719272.4375,249691.34375,220678.25,224766.734375,0.0
1775427358.197202,237195.734375,718846.25,266013.125,719419.8125,719272.125,249690.546875,220678.25,224770.578125,0.0
1775427358.1972218,237198.15625,718846.6875,266010.90625,719420.25,719273.0625,249693.765625,220681.5625,224785.25,0.0
1775427358.1993277,237200.203125,718850.375,266009.5625,719423.8125,719276.875,249694.296875,220684.234375,224818.953125,0.0
1775427358.2033312,237195.109375,718848.5,266009.09375,719421.875,719274.625,249697.78125,220684.6875,224764.953125,0.0
1775427358.216948,237195.921875,718849.3125,266004.09375,719423.0,719275.6875,249691.171875,220682.71875,224764.953125,0.0
1775427358.2219677,237197.53125,718851.4375,266000.875,719425.0,719278.0,249693.765625,220682.625,224775.859375,0.0
1775427358.2220187,237205.9375,718852.8125,266004.46875,719426.625,719279.0,249699.75,220690.046875,224817.96875,0.0
1775427358.2220275,237203.78125,718850.75,266003.75,719425.0625,719277.1875,249703.859375,220690.765625,224777.828125,0.0
1775427358.2245586,237209.515625,718852.1875,266005.71875,719425.4375,719278.125,249704.3125,220688.53125,224775.5,0.0
1775427358.2283309,237204.234375,718851.0,265998.75,719424.125,719276.375,249701.90625,220685.3125,224788.46875,0.0
1775427358.242355,237208.25,718853.3125,265996.3125,719426.9375,719278.8125,249703.15625,220682.71875,224830.84375,0.0
1775427358.2423987,237202.0,718851.0,265989.71875,719424.75,719277.0,249699.3125,220673.15625,224801.15625,0.0
1775427358.2452912,237207.359375,718850.4375,265988.09375,719423.9375,719276.5625,249700.375,220671.71875,224778.453125,0.0
1775427358.2453432,237212.90625,718850.375,265986.3125,719423.8125,719276.5625,249705.65625,220677.703125,224787.296875,0.0
1775427358.2756934,237216.65625,718851.5625,265986.40625,719425.5,719278.125,249708.0625,220682.71875,224822.703125,0.0
1775427358.2829003,237208.078125,718851.8125,265980.40625,719425.875,719278.1875,249710.390625,220683.34375,224814.921875,0.0
1775427358.2829492,237206.109375,718850.375,265976.90625,719424.375,719276.5625,249710.484375,220685.84375,224778.453125,0.0
1775427358.2829585,237209.78125,718850.8125,265976.125,719424.5625,719277.3125,249712.359375,220687.90625,224787.75,0.0
1775427358.295978,237213.4375,718853.5,265973.875,719427.4375,719279.625,249714.6875,220688.96875,224816.359375,0.0
1775427358.2960963,237205.03125,718854.875,265964.65625,719428.8125,719281.25,249710.390625,220688.265625,224823.78125,0.0
1775427358.2961235,237200.84375,718851.8125,265960.375,719425.25,719278.1875,249707.265625,220687.28125,224776.9375,0.0
1775427358.29799,237206.640625,718851.875,265958.15625,719425.1875,719278.1875,249705.125,220686.03125,224788.90625,0.0
1775427358.3011148,237214.0625,718853.4375,265962.875,719426.9375,719279.5,249708.515625,220690.3125,224815.28125,0.0
1775427358.3031669,237211.5625,718853.75,265960.90625,719427.5,719280.25,249707.796875,220693.09375,224838.078125,0.0
1775427358.305956,237207.546875,718853.0625,265958.5,719427.0625,719279.5,249712.8125,220692.109375,224788.734375,0.0
1775427358.31059,237213.171875,718855.1875,265958.0625,719428.9375,719281.125,249713.796875,220692.734375,224794.71875,0.0
1775427358.313507,237218.09375,718854.0625,265957.96875,719427.9375,719280.5,249715.125,220693.796875,224801.96875,0.0
1775427358.3180404,237216.75,718855.0,265951.71875,719428.5,719281.25,249708.875,220694.25,224834.953125,0.0
1775427358.320675,237206.640625,718853.25,265945.0,719426.5,719279.4375,249708.875,220691.921875,224784.625,0.0
1775427358.3234565,237215.765625,718856.125,265948.75,719429.4375,719282.375,249713.96875,220696.3125,224789.09375,0.0
1775427358.3265336,237218.53125,718857.875,265947.40625,719431.4375,719284.8125,249714.328125,220696.3125,224800.359375,0.0
1775427358.326641,237219.4375,718860.1875,265944.28125,719433.5,719286.9375,249711.734375,220697.921875,224845.421875,0.0
1775427358.3279796,237213.171875,718859.5,265938.9375,719432.875,719286.0625,249714.234375,220694.96875,224804.921875,0.0
1775427358.3304443,237219.875,718859.75,265942.78125,719433.25,719285.9375,249719.328125,220691.75,224793.203125,0.0
1775427358.333662,237219.078125,718858.75,265940.875,719432.4375,719285.25,249715.84375,220691.5625,224799.546875,0.0
1775427358.333701,237216.21875,718859.6875,265934.09375,719433.375,719286.4375,249710.84375,220692.90625,224834.78125,0.0
1775427358.3354611,237208.25,718858.625,265926.9375,719432.3125,719285.3125,249711.828125,220692.015625,224805.453125,0.0
1775427358.3445096,237214.875,718859.3125,265928.625,719432.75,719285.6875,249715.125,220695.40625,224787.125,0.0
1775427358.349297,237211.296875,718859.0625,265922.65625,719431.9375,719285.3125,249710.484375,220690.3125,224794.984375,0.0
1775427358.3493826,237215.859375,718862.375,265923.09375,719435.4375,719288.5,249707.796875,220693.265625,224825.125,0.0
1775427358.3577845,237211.125,718857.8125,265920.5,719431.25,719284.0625,249710.578125,220692.734375,224806.96875,0.0
1775427358.3578584,237212.640625,718855.375,265919.15625,719428.375,719281.5,249712.71875,220694.515625,224772.015625,0.0
1775427358.359416,237216.65625,718857.0,265916.84375,719430.0,719283.0,249709.046875,220692.90625,224783.453125,0.0
1775427358.374885,237223.015625,718860.1875,265919.4375,719433.5,719286.4375,249711.5625,220694.703125,224809.46875,0.0
1775427358.3777301,237217.640625,718861.3125,265916.03125,719434.5625,719287.3125,249712.71875,220692.90625,224814.578125,0.0
1775427358.377781,237213.53125,718859.5,265911.46875,719433.0625,719286.0625,249712.890625,220688.625,224767.640625,0.0
1775427358.37945,237213.890625,718859.3125,265908.4375,719432.5625,719285.4375,249709.140625,220687.359375,224781.3125,0.0
1775427358.3822324,237215.671875,718860.125,265908.0625,719433.25,719286.3125,249714.234375,220689.6875,224806.078125,0.0
1775427358.385801,237217.203125,718859.5,265906.375,719433.0625,719286.25,249717.640625,220691.84375,224833.4375,0.0
1775427358.3932319,237213.703125,718858.125,265902.0,719432.125,719285.0,249714.234375,220690.234375,224781.046875,0.0
1775427358.3990216,237220.859375,718860.375,265904.5,719434.5625,719287.0625,249717.09375,220694.96875,224787.84375,0.0
1775427358.3991504,237220.140625,718862.0,265901.625,719435.875,719288.1875,249715.40625,220696.484375,224793.203125,0.0
1775427358.4034688,237221.125,718864.5,265899.5,719438.25,719290.6875,249716.46875,220699.703125,224825.296875,0.0
1775427358.4055932,237212.375,718859.6875,265892.6875,719433.5,719286.25,249716.65625,220698.359375,224774.34375,0.0
1775427358.4080956,237216.921875,718860.8125,265892.4375,719435.125,719287.6875,249715.484375,220697.46875,224769.953125,0.0
1775427358.4142992,237216.390625,718861.75,265888.84375,719435.75,719288.1875,249712.71875,220695.953125,224777.46875,0.0
1775427358.4211605,237217.28125,718863.25,265884.90625,719437.3125,719289.75,249713.96875,220701.046875,224823.78125,0.0
1775427358.4212136,237214.421875,718863.0625,265884.03125,719437.4375,719290.0625,249719.15625,220702.75,224785.0625,0.0
1775427358.423565,237217.5625,718862.8125,265881.625,719436.8125,719289.25,249714.5,220703.1875,224768.53125,0.0
1775427358.439689,237217.375,718861.9375,265880.1875,719435.875,719288.8125,249717.1875,220704.71875,224772.28125,0.0
1775427358.4425576,237221.125,718864.5625,265882.6875,719438.375,719291.125,249720.765625,220711.234375,224809.65625,0.0
1775427358.442609,237211.125,718863.9375,265875.4375,719437.3125,719289.875,249719.328125,220703.734375,224783.09375,0.0
1775427358.4468055,237216.75,718864.25,265874.71875,719437.875,719290.8125,249721.296875,220700.6875,224752.25,0.0
1775427358.4494617,237217.828125,718864.4375,265868.5625,719437.9375,719291.25,249721.921875,220699.609375,224754.765625,0.0
1775427358.452006,237221.21875,718868.6875,265866.5,719441.8125,719295.1875,249722.28125,220703.015625,224796.15625,0.0
1775427358.4545476,237213.984375,718866.375,265860.15625,719439.5,719292.6875,249720.40625,220701.40625,224790.96875,0.0
1775427358.4580684,237216.03125,718864.6875,265860.0625,719437.9375,719291.125,249720.5,220700.15625,224753.421875,0.0
1775427358.461887,237225.609375,718865.3125,265866.40625,719438.6875,719291.5,249727.828125,220706.671875,224767.453125,0.0
1775427358.4705358,237227.296875,718866.5625,265863.8125,719440.1875,719293.125,249729.078125,220709.890625,224797.40625,0.0
1775427358.4755168,237224.078125,718868.0,265860.25,719441.25,719294.1875,249729.078125,220708.828125,224808.84375,0.0
1775427358.4755588,237227.125,718863.875,265861.3125,719437.25,719290.625,249735.0625,220707.484375,224754.484375,0.0
1775427358.4755783,237229.796875,718865.9375,265857.65625,719439.1875,719292.375,249737.21875,220710.171875,224767.640625,0.0
1775427358.4779892,237232.046875,718868.375,265856.59375,719442.0,719295.0,249739.265625,220715.53125,224791.328125,0.0
1775427358.4868789,237225.421875,718870.3125,265849.5,719444.6875,719297.3125,249736.765625,220714.1875,224816.984375,0.0
1775427358.4998765,237224.265625,718867.25,265846.75,719441.25,719294.125,249737.03125,220711.234375,224762.984375,0.0
1775427358.4999337,237222.828125,718865.6875,265839.875,719439.5625,719292.375,249730.59375,220709.453125,224764.859375,0.0
1775427358.5024211,237222.03125,718867.375,265834.125,719440.8125,719294.0,249730.515625,220708.28125,224779.796875,0.0
1775427358.5024636,237226.9375,718871.3125,265831.375,719444.9375,719298.0625,249732.65625,220710.171875,224816.625,0.0
1775427358.5134835,237223.453125,718871.0,265827.15625,719445.375,719297.75,249736.859375,220711.5,224770.859375,0.0
1775427358.5179315,237224.96875,718870.9375,265826.28125,719445.375,719298.0625,249733.734375,220707.9375,224764.0625,0.0
1775427358.5179896,237228.734375,718871.3125,265826.8125,719445.375,719298.1875,249737.296875,220707.484375,224774.703125,0.0
1775427358.5201068,237234.625,718873.4375,265829.21875,719447.5,719300.0,249738.375,220714.015625,224816.359375,0.0
1775427358.5201993,237227.5625,718869.625,265822.25,719443.75,719296.1875,249734.796875,220713.296875,224776.390625,0.0
1775427358.5359485,237231.5,718870.3125,265824.46875,719444.0625,719296.9375,249739.1875,220717.3125,224762.265625,0.0
1775427358.5467608,237227.84375,718871.9375,265820.90625,719445.75,719298.375,249738.640625,220719.28125,224773.890625,0.0
1775427358.5468206,237231.953125,718874.6875,265821.4375,719448.75,719301.0,249740.515625,220723.484375,224814.75,0.0
1775427358.5468323,237226.859375,718872.375,265819.28125,719446.8125,719299.125,249744.015625,220722.421875,224786.5,0.0
1775427358.5496876,237229.265625,718873.1875,265815.09375,719447.6875,719299.625,249743.5625,220722.234375,224757.625,0.0
1775427358.5522103,237232.390625,718873.4375,265811.78125,719447.375,719299.625,249741.0625,220722.328125,224764.421875,0.0
1775427358.5548441,237231.0625,718875.875,265805.25,719449.9375,719302.0625,249735.96875,220722.421875,224791.859375,0.0
1775427358.5598695,237222.03125,718873.625,265796.3125,719447.625,719300.0,249734.078125,220720.0,224781.046875,0.0
1775427358.5620663,237220.140625,718871.625,265792.46875,719444.9375,719297.5,249733.90625,220719.828125,224740.0,0.0
1775427358.5667987,237226.140625,718871.5625,265797.40625,719445.125,719297.875,249735.875,220721.15625,224750.109375,0.0
1775427358.5697565,237233.296875,718872.625,265799.1875,719446.5625,719299.3125,249736.671875,220719.734375,224774.34375,0.0
1775427358.5748932,237228.546875,718875.0625,265795.15625,719448.9375,719301.5,249738.28125,220718.296875,224787.296875,0.0
1775427358.5749393,237226.3125,718872.75,265792.375,719446.875,719299.1875,249742.765625,220716.875,224733.75,0.0
1775427358.5773072,237229.625,718872.4375,265791.75,719446.5625,719298.5625,249745.703125,220720.625,224744.390625,0.0
1775427358.5835285,237223.90625,718872.8125,265783.71875,719446.4375,719299.3125,249738.109375,220720.09375,224760.296875,0.0
1775427358.5862746,237227.390625,718875.3125,265787.09375,719448.9375,719301.8125,249739.984375,220722.953125,224788.640625,0.0
1775427358.5863452,237226.5,718873.0625,265787.65625,719447.0625,719299.75,249744.28125,220722.5,224739.5625,0.0
1775427358.59696,237223.359375,718875.4375,265780.40625,719448.875,719302.0,249736.40625,220718.390625,224746.171875,0.0
1775427358.6036162,237224.890625,718875.75,265777.53125,719449.375,719302.0625,249735.96875,220716.0625,224756.375,0.0
1775427358.6036608,237231.0625,718876.5625,265776.375,719450.5625,719303.0625,249739.0,220717.765625,224794.453125,0.0
1775427358.606047,237226.9375,718875.125,265772.625,719449.125,719301.625,249741.328125,220718.296875,224752.4375,0.0
1775427358.6060653,237234.453125,718875.125,265775.21875,719449.125,719301.625,249742.3125,220720.890625,224752.875,0.0
1775427358.6245873,237240.71875,718877.625,265779.15625,719451.875,719304.3125,249745.625,220724.5625,224765.125,0.0
1775427358.6300037,237234.453125,718879.0625,265769.0625,719453.0,719305.4375,249738.375,220720.171875,224798.03125,0.0
1775427358.6300726,237227.84375,718874.4375,265765.28125,719448.0625,719300.8125,249741.0625,220718.75,224756.546875,0.0
1775427358.6320925,237237.671875,718876.75,265770.65625,719450.1875,719303.0625,249746.6875,220723.046875,224747.25,0.0
1775427358.6348147,237241.34375,718877.9375,265770.125,719451.625,719303.875,249749.375,220724.734375,224756.546875,0.0
1775427358.6368268,237246.796875,718881.375,265770.75,719455.5,719307.3125,249755.1875,220729.125,224798.921875,0.0
1775427358.6403897,237242.765625,718883.1875,265767.53125,719457.0625,719309.5625,249758.9375,220730.1875,224782.46875,0.0
1775427358.640448,237246.171875,718884.375,265766.375,719458.3125,719310.75,249759.203125,220731.625,224754.84375,0.0
1775427358.6419291,237247.859375,718885.6875,265764.3125,719459.6875,719311.875,249760.109375,220734.125,224765.484375,0.0
1775427358.6566708,237251.0,718887.5,265763.9375,719461.5,719313.875,249761.171875,220738.6875,224799.640625,0.0
1775427358.6567495,237242.859375,718885.0,265757.25,719458.8125,719310.75,249760.109375,220736.09375,224790.25,0.0
1775427358.6580896,237238.828125,718881.6875,265749.8125,719456.0,719308.125,249754.65625,220728.671875,224745.375,0.0
1775427358.660567,237242.765625,718879.9375,265749.125,719454.3125,719306.5,249752.234375,220727.515625,224755.203125,0.0
1775427358.6644163,237243.84375,718879.0625,265744.0,719453.4375,719305.625,249745.4375,220727.0625,224775.671875,0.0
1775427358.6787684,237238.65625,718879.0,265738.65625,719453.4375,719305.875,249742.21875,220726.34375,224785.328125,0.0
1775427358.6788406,237240.078125,718878.875,265738.90625,719453.0,719305.25,249743.03125,220725.0,224734.109375,0.0
1775427358.6807532,237251.078125,718881.875,265743.84375,719455.6875,719308.0625,249750.71875,220730.90625,224754.9375,0.0
1775427358.6832774,237257.609375,718883.75,265747.875,719457.875,719310.0,249758.21875,220736.984375,224779.25,0.0
1775427358.685692,237253.59375,718883.1875,265742.40625,719457.0625,719309.5,249754.296875,220737.609375,224803.03125,0.0
1775427358.6919253,237241.34375,718879.0,265731.9375,719453.1875,719305.1875,249752.59375,220730.90625,224744.484375,0.0
1775427358.698499,237248.9375,718881.125,265734.4375,719455.375,719307.3125,249757.59375,220735.28125,224752.515625,0.0
1775427358.6985438,237248.046875,718880.75,265732.40625,719454.75,719307.0,249757.234375,220736.890625,224756.546875,0.0
1775427358.7047527,237250.453125,718883.8125,265734.0,719457.625,719310.375,249758.578125,220742.359375,224791.421875,0.0
1775427358.7079067,237241.15625,718880.3125,265723.09375,719454.9375,719307.25,249755.09375,220736.71875,224743.3125,0.0
1775427358.707981,237245.359375,718882.0,265715.40625,719457.0,719308.75,249752.953125,220736.09375,224740.453125,0.0
1775427358.7187486,237246.515625,718883.0,265713.625,719457.5625,719309.375,249754.46875,220737.171875,224745.28125,0.0
1775427358.72137,237252.421875,718885.6875,265716.65625,719459.9375,719311.875,249760.453125,220742.359375,224779.25,0.0
1775427358.7214212,237241.875,718882.75,265709.59375,719456.75,719309.3125,249764.03125,220739.40625,224739.203125,0.0
1775427358.7236247,237248.671875,718880.9375,265710.5,719455.1875,719307.625,249766.984375,220740.5625,224725.875,0.0
1775427358.7268684,237246.171875,718879.6875,265703.5,719454.3125,719306.375,249760.453125,220736.359375,224731.328125,0.0
1775427358.7411616,237253.140625,718882.5,265702.1875,719457.1875,719309.1875,249760.734375,220738.59375,224770.140625,0.0
1775427358.741228,237246.34375,718883.125,265694.40625,719457.4375,719309.1875,249759.828125,220736.453125,224755.109375,0.0
1775427358.7436087,237248.9375,718883.8125,265694.65625,719458.0625,719310.125,249762.515625,220738.421875,224730.4375,0.0
1775427358.745626,237252.25,718884.625,265693.6875,719458.6875,719311.375,249767.703125,220741.90625,224750.46875,0.0
1775427358.7480884,237256.625,718886.25,265692.875,719460.875,719313.0625,249770.828125,220744.765625,224785.515625,0.0
1775427358.7568965,237241.25,718885.25,265679.09375,719460.0625,719312.0,249761.4375,220736.8125,224777.921875,0.0
1775427358.759899,237237.84375,718884.0625,265676.15625,719458.875,719311.0,249762.0625,220737.609375,224737.0625,0.0
1775427358.7599432,237242.5,718884.5,265675.625,719458.6875,719311.0,249762.96875,220738.6875,224752.4375,0.0
1775427358.7618768,237250.1875,718885.25,265678.3125,719459.3125,719311.625,249767.25,220741.28125,224776.65625,0.0
1775427358.7756855,237251.078125,718887.1875,265674.625,719461.8125,719314.125,249772.53125,220742.890625,224798.03125,0.0
1775427358.77874,237244.375,718885.25,265666.3125,719459.875,719312.1875,249769.140625,220740.75,224750.109375,0.0
1775427358.7787912,237249.296875,718887.0625,265667.03125,719461.125,719313.6875,249767.25,220742.171875,224762.984375,0.0
1775427358.7833936,237254.484375,718886.3125,265669.375,719460.5,719313.25,249768.859375,220744.765625,224777.28125,0.0
1775427358.786022,237253.046875,718888.375,265665.25,719462.625,719315.5625,249768.6875,220743.6875,224805.0,0.0
1775427358.7906928,237250.640625,718884.8125,265663.8125,719459.5,719312.0625,249773.609375,220744.59375,224753.5,0.0
1775427358.7936316,237260.46875,718886.25,265668.65625,719460.875,719313.5,249780.125,220751.5625,224758.15625,0.0
1775427358.7959845,237262.34375,718888.125,265664.25,719462.4375,719315.1875,249776.640625,220748.609375,224766.734375,0.0
1775427358.805904,237259.125,718892.125,265655.21875,719466.375,719318.9375,249771.90625,220745.65625,224803.9375,0.0
1775427358.8090897,237250.015625,718891.125,265648.96875,719465.5625,719318.125,249774.40625,220744.046875,224759.59375,0.0
1775427358.8091674,237254.84375,718892.1875,265648.53125,719466.8125,719319.0625,249776.375,220750.40625,224755.828125,0.0
1775427358.8104844,237250.28125,718891.3125,265641.65625,719465.6875,719318.0,249775.21875,220750.125,224760.125,0.0
1775427358.819748,237254.296875,718892.5,265639.6875,719466.3125,719318.625,249772.0,220752.1875,224798.921875,0.0
1775427358.8224633,237249.921875,718891.6875,265636.5625,719465.375,719317.875,249777.0,220753.265625,224767.640625,0.0
1775427358.8225627,237257.78125,718892.125,265638.0625,719466.5625,719318.875,249779.953125,220756.921875,224749.296875,0.0
1775427358.824231,237255.640625,718891.25,265632.25,719465.375,719318.125,249775.484375,220752.71875,224755.109375,0.0
1775427358.8381543,237257.515625,718892.375,265631.375,719466.5625,719319.375,249776.546875,220753.4375,224789.453125,0.0
1775427358.8410103,237248.046875,718894.0,265626.28125,719468.1875,719320.8125,249778.4375,220751.65625,224769.0625,0.0
1775427358.8455737,237244.90625,718891.875,265618.84375,719466.1875,719318.625,249775.75,220748.875,224735.265625,0.0
1775427358.8483696,237251.0,718893.5625,265621.71875,719468.375,719320.625,249779.5,220752.8125,224749.21875,0.0
1775427358.852378,237262.796875,718897.3125,265631.1875,719471.6875,719324.25,249785.765625,220763.1875,224790.515625,0.0
1775427358.852438,237259.484375,718897.75,265629.9375,719472.0,719324.4375,249790.859375,220764.703125,224796.25,0.0
1775427358.866142,237251.53125,718894.8125,265619.125,719469.25,719321.75,249782.8125,220761.390625,224749.390625,0.0
1775427358.8662078,237255.28125,718897.125,265617.78125,719471.5,719323.9375,249782.453125,220765.953125,224763.4375,0.0
1775427358.8684857,237258.328125,718899.375,265618.65625,719474.25,719326.625,249783.53125,220769.796875,224785.25,0.0
1775427358.870962,237253.140625,718899.625,265610.96875,719474.1875,719326.8125,249783.96875,220769.625,224800.265625,0.0
1775427358.8733528,237252.953125,718897.75,265608.84375,719471.75,719324.25,249785.578125,220769.359375,224753.6875,0.0
1775427358.8849187,237258.859375,718898.8125,265609.71875,719473.0,719325.0625,249786.390625,220770.25,224765.578125,0.0
1775427358.8849647,237256.453125,718899.9375,265608.65625,719474.1875,719326.4375,249788.0,220769.796875,224777.921875,0.0
1775427358.8869836,237258.765625,718901.4375,265609.28125,719475.875,719328.5,249790.5,220773.5625,224806.53125,0.0
1775427358.9167912,237251.34375,718898.75,265603.1875,719472.8125,719325.3125,249790.140625,220769.4375,224750.734375,0.0
1775427358.9192853,237258.59375,718897.75,265602.40625,719471.75,719324.25,249790.234375,220769.625,224752.4375,0.0
1775427358.9227755,237263.59375,718900.0,265603.1875,719474.1875,719326.9375,249792.640625,220774.09375,224766.921875,0.0
1775427358.9228263,237267.09375,718901.3125,265602.03125,719475.875,719328.6875,249792.5625,220777.671875,224806.4375,0.0
1775427358.9252908,237258.140625,718895.8125,265597.375,719470.25,719322.875,249792.46875,220775.078125,224758.6875,0.0
1775427358.9254272,237261.28125,718896.875,265598.46875,719471.5625,719323.9375,249787.8125,220772.65625,224752.4375,0.0
1775427358.926833,237263.25,718898.125,265596.5,719472.5625,719325.125,249787.640625,220771.234375,224763.703125,0.0
1775427358.9299424,237269.953125,718898.625,265594.625,719472.8125,719325.3125,249788.71875,220769.984375,224801.703125,0.0
1775427358.9345813,237261.640625,718895.0,265585.6875,719469.25,719321.4375,249789.15625,220767.125,224766.828125,0.0
1775427358.9367447,237265.5625,718894.125,265589.53125,719468.25,719320.5,249793.359375,220770.96875,224745.109375,0.0
1775427358.941876,237264.671875,718895.4375,265587.71875,719469.4375,719321.8125,249793.625,220770.515625,224757.0,0.0
1775427358.9443424,237265.65625,718900.8125,265583.71875,719474.8125,719327.0,249789.421875,220773.28125,224800.265625,0.0
1775427358.9499192,237258.765625,718899.25,265578.4375,719474.0625,719326.0,249791.484375,220772.84375,224786.9375,0.0
1775427358.9499595,237266.28125,718896.875,265580.84375,719471.75,719323.8125,249795.15625,220771.953125,224752.96875,0.0
1775427358.9519463,237269.328125,718897.75,265578.0,719471.75,719324.125,249796.3125,220773.734375,224768.078125,0.0
1775427358.9544983,237270.03125,718902.25,265574.84375,719476.6875,719329.0,249796.40625,220776.78125,224798.125,0.0
1775427358.9570389,237266.640625,718901.4375,265570.03125,719476.125,719328.25,249797.125,220775.171875,224799.015625,0.0
1775427358.9594276,237264.140625,718898.0,265563.5,719472.375,719324.5,249794.703125,220770.609375,224750.015625,0.0
1775427358.9625301,237263.0625,718898.375,265555.28125,719473.25,719325.3125,249786.125,220768.375,224754.484375,0.0
1775427358.966552,237267.171875,718902.125,265555.8125,719476.375,719328.4375,249789.34375,220774.265625,224777.015625,0.0
1775427358.9666364,237265.921875,718903.9375,265554.125,719478.125,719330.25,249793.359375,220778.734375,224803.65625,0.0
1775427358.9795923,237259.84375,718899.25,265548.125,719473.4375,719325.6875,249789.78125,220771.5,224750.5625,0.0
1775427358.9834151,237264.140625,718898.5625,265544.90625,719473.0,719325.3125,249789.96875,220774.453125,224757.0,0.0
1775427358.9834936,237269.40625,718901.0625,265543.75,719475.75,719327.875,249790.046875,220777.21875,224776.75,0.0
1775427358.9842503,237268.15625,718903.3125,265539.0,719478.1875,719329.625,249785.765625,220773.46875,224808.765625,0.0
1775427358.9872248,237261.359375,718902.5,265533.28125,719477.0,719328.6875,249789.609375,220769.0,224755.203125,0.0
1775427358.995558,237262.53125,718901.8125,265528.8125,719476.875,719328.4375,249783.34375,220766.484375,224750.203125,0.0
1775427358.9988124,237264.578125,718902.5625,265529.78125,719477.1875,719329.0,249784.875,220768.375,224752.96875,0.0
1775427358.998882,237267.984375,718903.9375,265532.5625,719478.4375,719330.5,249790.59375,220773.203125,224792.40625,0.0
1775427359.0003393,237263.6875,718903.75,265530.0625,719478.0,719330.125,249793.546875,220770.25,224749.75,0.0
1775427359.008479,237273.703125,718903.375,265534.8125,719477.75,719329.625,249797.828125,220774.71875,224747.875,0.0
1775427359.0117624,237278.703125,718905.375,265537.03125,719479.6875,719331.375,249803.109375,220779.453125,224766.203125,0.0
1775427359.0209577,237279.25,718909.0,265535.0625,719483.4375,719335.4375,249800.875,220783.03125,224808.3125,0.0
1775427359.0237837,237268.515625,718904.4375,265523.625,719479.1875,719331.3125,249800.25,220776.78125,224772.8125,0.0
1775427359.0238776,237274.234375,718901.8125,265522.46875,719477.0,719328.4375,249797.390625,220777.484375,224749.390625,0.0
1775427359.041908,237270.125,718901.25,265516.21875,719475.9375,719327.875,249790.953125,220773.375,224756.90625,0.0
1775427359.0444624,237268.0625,718901.5,265512.1875,719476.375,719328.6875,249788.71875,220771.140625,224785.78125,0.0
1775427359.0477507,237263.6875,718902.125,265510.46875,719476.75,719328.875,249791.75,220771.765625,224772.8125,0.0
1775427359.047803,237269.40625,718900.4375,265512.8125,719475.4375,719327.375,249797.125,220774.71875,224740.71875,0.0
1775427359.0498536,237269.859375,718903.75,265508.875,719478.4375,719330.75,249796.40625,220776.421875,224756.546875,0.0
1775427359.0546055,237274.859375,718906.1875,265508.875,719480.5,719332.8125,249800.34375,220782.3125,224790.875,0.0
1775427359.0573976,237267.265625,718904.9375,265500.28125,719479.25,719331.125,249799.703125,220780.96875,224797.5,0.0
1775427359.0601103,237266.8125,718902.5625,265499.125,719476.9375,719329.0,249801.671875,220779.359375,224753.78125,0.0
1775427359.0602186,237271.46875,718904.8125,265498.875,719479.25,719331.125,249802.296875,220781.15625,224770.5,0.0
1775427359.068323,237272.625,718907.5,265497.15625,719482.0625,719333.6875,249799.984375,220783.296875,224792.40625,0.0
1775427359.0779757,237269.046875,718908.6875,265492.0625,719483.1875,719335.25,249799.265625,220778.109375,224816.1875,0.0
1775427359.078026,237265.5625,718905.6875,265488.65625,719480.0,719331.8125,249802.484375,220775.796875,224762.71875,0.0
1775427359.0827184,237265.921875,718905.375,265485.0,719479.375,719331.625,249802.75,220776.140625,224767.453125,0.0
1775427359.0827944,237265.296875,718907.0,265481.34375,719480.875,719333.1875,249802.65625,220779.015625,224780.59375,0.0
1775427359.084646,237264.3125,718908.25,265477.03125,719482.1875,719334.6875,249801.671875,220780.796875,224822.171875,0.0
1775427359.0874543,237256.984375,718906.625,265470.15625,719480.25,719333.1875,249798.90625,220775.515625,224773.625,0.0
1775427359.0957155,237266.28125,718906.625,265474.625,719480.625,719333.25,249802.921875,220779.09375,224776.578125,0.0
1775427359.1002903,237272.09375,718907.5,265476.96875,719481.75,719334.3125,249806.859375,220783.75,224779.796875,0.0
1775427359.1003659,237274.328125,718908.875,265475.96875,719483.125,719335.4375,249806.0625,220788.03125,224811.890625,0.0
1775427359.1119351,237269.953125,718907.75,265476.15625,719481.5625,719334.25,249809.1875,220785.890625,224769.515625,0.0
1775427359.1154485,237275.21875,718908.0625,265477.59375,719482.125,719334.6875,249810.890625,220785.890625,224758.953125,0.0
1775427359.115579,237277.453125,718905.0625,265475.71875,719479.375,719331.8125,249811.875,220786.875,224763.4375,0.0
1775427359.1173282,237283.890625,718908.375,265478.03125,719482.8125,719335.5625,249817.140625,220794.65625,224803.21875,0.0
1775427359.1194427,237278.703125,718907.75,265474.4375,719482.5625,719334.625,249820.09375,220794.03125,224778.546875,0.0
1775427359.1259716,237280.859375,718909.5625,265472.9375,719484.1875,719335.5,249819.203125,220796.171875,224760.5625,0.0
1775427359.130055,237283.1875,718912.875,265472.65625,719487.375,719339.0,249820.453125,220796.796875,224770.765625,0.0
1775427359.1301572,237286.046875,718914.6875,265471.59375,719489.125,719341.125,249821.078125,220798.328125,224806.171875,0.0
1775427359.1431592,237279.0625,718913.3125,265463.46875,719487.375,719339.8125,249823.765625,220795.015625,224791.59375,0.0
1775427359.1465297,237277.09375,718911.0625,265456.9375,719485.25,719337.375,249820.625,220796.796875,224752.703125,0.0
1775427359.1466167,237276.109375,718912.875,265456.65625,719486.6875,719338.8125,249819.734375,220800.46875,224764.234375,0.0
1775427359.1482522,237281.125,718913.875,265459.6875,719488.1875,719340.3125,249819.46875,220799.578125,224787.921875,0.0
1775427359.1504729,237278.171875,718915.125,265454.4375,719488.75,719341.5625,249819.734375,220799.578125,224794.359375,0.0
1775427359.15939,237272.625,718914.3125,265448.4375,719488.3125,719340.4375,249821.4375,220800.015625,224749.578125,0.0
1775427359.164045,237277.015625,718916.4375,265447.625,719491.0,719342.5625,249823.3125,220801.890625,224759.671875,0.0
1775427359.1642363,237279.0625,718915.1875,265443.4375,719489.8125,719341.6875,249820.90625,220800.90625,224774.703125,0.0
1775427359.1697571,237276.03125,718914.75,265437.25,719488.8125,719340.75,249820.71875,220802.875,224792.671875,0.0
1775427359.174059,237269.5,718912.0,265430.8125,719485.625,719337.625,249818.9375,220801.546875,224742.421875,0.0
1775427359.1741688,237270.3125,718912.6875,265427.875,719486.6875,719338.875,249816.875,220797.15625,224750.734375,0.0
1775427359.1822093,237270.578125,718915.1875,265424.90625,719489.1875,719341.0625,249818.84375,220795.734375,224763.15625,0.0
1775427359.1864169,237268.78125,718918.25,265421.0,719491.875,719344.0,249820.625,220798.59375,224800.09375,0.0
1775427359.1864672,237261.71875,718916.875,265417.84375,719490.6875,719342.9375,249823.046875,220798.328125,224751.359375,0.0
1775427359.191893,237271.640625,718917.8125,265422.0625,719491.6875,719344.0625,249827.515625,220803.421875,224753.59375,0.0
1775427359.1958284,237271.734375,718916.5625,265420.09375,719490.8125,719343.1875,249826.359375,220806.015625,224760.65625,0.0
1775427359.20448,237271.921875,718917.8125,265418.65625,719492.0625,719344.5,249819.5625,220810.484375,224798.5625,0.0
1775427359.207924,237265.03125,718915.625,265414.0,719490.0,719342.5625,249818.671875,220807.0,224754.9375,0.0
1775427359.208038,237275.671875,718915.125,265416.59375,719489.375,719341.6875,249823.9375,220806.453125,224749.296875,0.0
1775427359.2158213,237282.203125,718916.0625,265420.09375,719490.25,719342.625,249828.953125,220808.25,224765.21875,0.0
1775427359.2183304,237287.109375,718917.9375,265420.90625,719492.25,719344.625,249830.28125,220809.140625,224800.265625,0.0
1775427359.2205727,237275.3125,718916.875,265413.75,719491.0625,719343.25,249827.0625,220806.1875,224769.78125,0.0
1775427359.2232223,237283.53125,718917.0,265419.28125,719491.25,719343.25,249829.21875,220810.390625,224754.3125,0.0
1775427359.2320664,237288.015625,718916.4375,265417.21875,719490.8125,719343.125,249830.46875,220811.90625,224763.34375,0.0
1775427359.2390432,237290.78125,718918.25,265413.21875,719492.3125,719344.875,249828.59375,220809.046875,224791.859375,0.0
1775427359.239126,237283.984375,718916.25,265408.75,719490.25,719342.9375,249829.75,220805.828125,224777.921875,0.0
1775427359.2473996,237285.953125,718915.0,265406.78125,719488.9375,719341.25,249830.46875,220807.703125,224736.875,0.0
1775427359.2474444,237288.28125,718916.25,265400.78125,719490.5,719342.3125,249830.640625,220808.515625,224745.734375,0.0
1775427359.2497177,237293.375,718919.5625,265397.65625,719493.5625,719345.25,249834.484375,220812.625,224775.765625,0.0
1775427359.2522082,237285.328125,718919.1875,265389.15625,719493.6875,719345.625,249832.875,220812.796875,224784.0,0.0
1775427359.263349,237281.390625,718917.3125,265386.21875,719491.75,719343.875,249835.203125,220812.09375,224738.484375,0.0
1775427359.2665503,237281.578125,718915.75,265381.03125,719490.0,719341.875,249827.96875,220811.46875,224746.53125,0.0
1775427359.2666297,237280.59375,718916.5625,265374.6875,719490.875,719342.75,249824.5625,220811.109375,224763.703125,0.0
1775427359.2683012,237277.71875,718919.125,265367.625,719493.0625,719345.0,249823.21875,220810.75,224789.890625,0.0
1775427359.2744648,237273.078125,718917.3125,265364.46875,719491.625,719343.4375,249823.3125,220806.71875,224733.03125,0.0
1775427359.2813315,237280.140625,718919.0625,265368.40625,719493.1875,719345.25,249827.421875,220808.953125,224735.984375,0.0
1775427359.2814064,237281.03125,718919.6875,265367.625,719494.3125,719346.125,249832.25,220811.015625,224745.28125,0.0
1775427359.2879603,237285.765625,718924.3125,265367.78125,719498.5,719350.625,249834.765625,220815.21875,224784.265625,0.0
1775427359.2880356,237282.90625,718923.9375,265366.90625,719498.375,719350.0625,249841.28125,220816.734375,224738.9375,0.0
1775427359.2892091,237293.28125,718923.75,265373.15625,719498.5625,719350.1875,249847.8125,220824.875,224746.53125,0.0
1775427359.2985797,237295.421875,718926.1875,265371.375,719500.5625,719352.375,249848.265625,220829.796875,224763.703125,0.0
1775427359.3045647,237300.796875,718928.6875,265372.0,719502.625,719354.625,249849.421875,220833.28125,224804.109375,0.0
1775427359.3071902,237291.859375,718923.6875,265364.46875,719498.0625,719349.625,249847.0,220828.359375,224754.578125,0.0
1775427359.309767,237294.0,718921.4375,265362.4375,719496.0625,719347.5625,249845.671875,220824.515625,224732.671875,0.0
1775427359.31964,237292.296875,718919.875,265358.75,719494.4375,719346.125,249844.328125,220822.109375,224737.0625,0.0
1775427359.3242707,237300.25,718920.9375,265357.96875,719495.375,719347.0,249840.84375,220828.71875,224778.984375,0.0
1775427359.3243217,237298.109375,718920.75,265355.4375,719495.0625,719346.9375,249844.765625,220831.765625,224754.671875,0.0
1775427359.32433,237299.1875,718921.1875,265352.6875,719495.375,719347.375,249843.15625,220827.46875,224725.609375,0.0
1775427359.329743,237302.578125,718923.0625,265350.4375,719497.125,719349.6875,249845.578125,220826.65625,224742.0625,0.0
1775427359.3318436,237299.984375,718925.5,265344.1875,719499.625,719351.9375,249843.609375,220827.734375,224776.03125,0.0
1775427359.351118,237297.84375,718927.1875,265340.0625,719501.375,719353.125,249851.03125,220830.234375,224771.828125,0.0
1775427359.3536954,237297.21875,718924.25,265336.125,719498.5625,719350.6875,249852.1875,220828.0,224732.5,0.0
1775427359.353753,237295.515625,718923.5,265330.5,719498.1875,719350.1875,249846.46875,220825.5,224744.296875,0.0
1775427359.3620129,237295.78125,718925.1875,265328.53125,719499.625,719351.25,249846.828125,220823.890625,224768.96875,0.0
1775427359.362124,237291.40625,718924.5,265324.875,719499.0,719350.875,249845.84375,220825.59375,224783.375,0.0
1775427359.3702836,237288.8125,718923.0,265319.78125,719497.125,719349.1875,249847.0,220825.328125,224733.390625,0.0
1775427359.370374,237292.296875,718925.1875,265313.15625,719499.1875,719350.8125,249843.703125,220824.78125,224742.6875,0.0
1775427359.3718095,237295.703125,718925.375,265312.90625,719499.5625,719351.25,249846.921875,220825.765625,224761.90625,0.0
1775427359.3747337,237295.78125,718927.625,265311.65625,719501.375,719353.3125,249852.1875,220828.0,224790.515625,0.0
1775427359.377221,237292.921875,718926.375,265307.34375,719500.125,719351.6875,249857.28125,220825.59375,224738.578125,0.0
1775427359.3793213,237303.65625,718926.8125,265310.84375,719500.75,719352.9375,249855.59375,220826.3125,224746.71875,0.0
1775427359.3835015,237299.1875,718925.3125,265302.6875,719499.375,719351.875,249849.953125,220826.21875,224757.34375,0.0
1775427359.3899326,237303.921875,718929.0625,265301.71875,719503.0625,719355.4375,249854.421875,220831.578125,224793.203125,0.0
1775427359.3900332,237301.859375,718928.625,265299.40625,719502.6875,719355.0,249861.046875,220829.078125,224747.34375,0.0
1775427359.3958464,237312.234375,718929.125,265299.3125,719503.5,719355.4375,249862.65625,220830.6875,224744.65625,0.0
1775427359.4003294,237313.40625,718928.3125,265295.90625,719502.5,719354.8125,249863.1875,220832.03125,224751.359375,0.0
1775427359.4004288,237315.28125,718930.6875,265293.40625,719505.25,719357.3125,249860.328125,220832.03125,224794.453125,0.0
1775427359.408212,237315.09375,718929.0625,265292.96875,719503.6875,719355.5,249863.546875,220828.0,224757.34375,0.0
1775427359.4125197,237325.296875,718930.8125,265300.375,719505.125,719357.0625,249869.0,220834.890625,224747.96875,0.0
1775427359.4125829,237329.3125,718930.375,265301.8125,719504.75,719356.75,249871.140625,220836.234375,224758.515625,0.0
1775427359.4386404,237333.34375,718932.8125,265304.3125,719506.6875,719359.375,249873.375,220839.625,224802.140625,0.0
1775427359.4386923,237323.5,718929.875,265299.125,719504.0,719356.25,249871.328125,220832.921875,224777.015625,0.0
1775427359.441804,237322.421875,718927.6875,265296.09375,719502.4375,719353.9375,249872.578125,220831.046875,224744.75,0.0
1775427359.441872,237322.15625,718929.0625,265291.15625,719503.5,719355.375,249869.53125,220835.328125,224757.078125,0.0
1775427359.4463704,237324.9375,718932.0,265288.84375,719506.25,719358.375,249869.09375,220839.8125,224792.40625,0.0
1775427359.4464164,237320.109375,718933.5,265284.65625,719508.125,719359.8125,249872.9375,220840.515625,224789.265625,0.0
1775427359.44826,237322.875,718932.6875,265284.46875,719507.25,719358.9375,249879.8125,220841.328125,224750.203125,0.0
1775427359.4504862,237319.03125,718933.6875,265278.46875,719508.3125,719359.875,249872.046875,220835.15625,224760.84375,0.0
1775427359.4529808,237312.421875,718934.75,265269.96875,719509.3125,719361.0625,249864.53125,220831.484375,224781.21875,0.0
1775427359.455473,237306.421875,718934.625,265261.9375,719508.75,719360.6875,249864.796875,220827.5625,224791.234375,0.0
1775427359.45811,237300.796875,718932.5625,265256.03125,719506.5625,719358.75,249863.546875,220824.78125,224743.046875,0.0
1775427359.4625492,237303.203125,718933.1875,265252.09375,719507.1875,719359.375,249862.65625,220822.640625,224758.25,0.0
1775427359.4625866,237308.296875,718932.5625,265251.21875,719506.625,719358.9375,249863.1875,220823.0,224777.28125,0.0
1775427359.476118,237308.578125,718934.625,265249.25,719509.3125,719361.4375,249864.53125,220824.609375,224806.96875,0.0
1775427359.4761586,237301.15625,718930.75,265244.40625,719505.4375,719357.0625,249863.8125,220820.9375,224751.8125,0.0
1775427359.4850452,237309.640625,718931.0,265247.375,719505.4375,719357.5,249863.453125,220817.71875,224755.390625,0.0
1775427359.4851303,237319.921875,718933.5,265254.6875,719508.25,719360.375,249869.8125,220821.125,224771.03125,0.0
1775427359.4879768,237326.359375,718936.3125,265259.0625,719510.625,719362.875,249873.375,220825.59375,224806.703125,0.0
1775427359.4880843,237321.796875,718933.4375,265257.71875,719507.5,719359.75,249877.5,220824.609375,224754.765625,0.0
1775427359.4906597,237328.953125,718932.375,265261.84375,719506.25,719358.3125,249884.828125,220826.21875,224746.078125,0.0
1775427359.5103047,237326.625,718932.375,265258.28125,719507.0625,719358.75,249882.140625,220830.234375,224753.953125,0.0
1775427359.5103807,237329.9375,718937.4375,265256.375,719512.4375,719364.125,249881.421875,220836.9375,224798.390625,0.0
1775427359.5122988,237326.453125,718935.9375,265253.15625,719511.0625,719362.6875,249884.203125,220837.484375,224761.375,0.0
1775427359.5123277,237334.40625,718936.1875,265256.125,719510.9375,719362.4375,249889.203125,220840.703125,224745.28125,0.0
1775427359.514321,237330.296875,718939.25,265250.84375,719513.5,719364.9375,249886.796875,220838.640625,224751.8125,0.0
1775427359.5173063,237338.609375,718940.9375,265254.78125,719515.0,719366.625,249891.703125,220843.375,224791.59375,0.0
1775427359.5291612,237327.96875,718937.25,265246.28125,719511.6875,719363.5625,249891.890625,220839.890625,224774.421875,0.0
1775427359.5553184,237334.40625,718935.9375,265250.5625,719510.125,719362.25,249897.796875,220845.34375,224754.765625,0.0
1775427359.5553932,237337.1875,718937.875,265251.5625,719512.1875,719364.1875,249898.421875,220846.0625,224770.046875,0.0
1775427359.5569048,237338.25,718939.875,265250.40625,719513.75,719366.25,249898.328125,220849.46875,224799.546875,0.0
1775427359.5595582,237328.6875,718939.875,265244.15625,719513.75,719366.0625,249896.359375,220844.984375,224799.90625,0.0
1775427359.5622263,237320.1875,718938.25,265236.1875,719512.1875,719364.375,249888.84375,220836.40625,224761.640625,0.0
1775427359.5669255,237323.0625,718940.4375,265235.5625,719514.9375,719367.0625,249886.875,220834.265625,224780.15625,0.0
1775427359.569748,237332.4375,718941.125,265239.3125,719515.625,719367.75,249892.78125,220837.484375,224808.3125,0.0
1775427359.572081,237326.0,718941.5,265232.34375,719515.9375,719367.625,249888.9375,220834.53125,224820.65625,0.0
1775427359.5743876,237321.984375,718941.0625,265227.25,719515.5,719366.6875,249886.796875,220834.265625,224772.640625,0.0
1775427359.5772028,237324.03125,718939.0,265221.4375,719512.8125,719364.8125,249878.75,220831.40625,224776.125,0.0
1775427359.5795715,237322.609375,718937.875,265218.125,719511.1875,719363.6875,249874.546875,220829.53125,224783.640625,0.0
1775427359.5818903,237322.34375,718939.4375,265219.375,719513.0625,719365.8125,249876.15625,220831.046875,224812.34375,0.0
1775427359.5849786,237321.984375,718935.6875,265217.6875,719509.6875,719361.6875,249878.65625,220829.25,224758.25,0.0
1775427359.5850284,237332.078125,718938.0625,265223.40625,719512.375,719363.8125,249883.03125,220835.328125,224763.609375,0.0
1775427359.5876243,237338.703125,718941.0625,265225.1875,719515.375,719367.0625,249888.140625,220841.59375,224775.953125,0.0
1775427359.58781,237344.609375,718944.0,265226.625,719518.25,719370.0,249893.140625,220846.6875,224815.734375,0.0
1775427359.5901492,237335.21875,718940.6875,265220.71875,719514.6875,719366.5,249891.984375,220840.96875,224768.34375,0.0
1775427359.5931592,237334.234375,718941.375,265215.1875,719515.375,719367.3125,249887.234375,220836.9375,224764.59375,0.0
1775427359.6024284,237338.078125,718940.875,265213.125,719515.0,719366.8125,249888.578125,220837.484375,224771.125,0.0
1775427359.60249,237345.9375,718941.75,265215.96875,719515.5625,719367.4375,249890.734375,220843.921875,224812.609375,0.0
1775427359.6053135,237332.890625,718938.375,265203.1875,719512.1875,719363.5625,249889.03125,220839.984375,224779.875,0.0
1775427359.6054173,237341.65625,718939.3125,265204.90625,719513.3125,719365.0625,249895.109375,220843.46875,224770.671875,0.0
1775427359.6156633,237350.234375,718941.9375,265207.3125,719515.9375,719368.375,249898.421875,220847.859375,224782.03125,0.0
1775427359.619264,237358.28125,718944.0,265210.0625,719518.4375,719370.75,249896.53125,220853.65625,224819.484375,0.0
1775427359.619338,237353.546875,718942.0,265208.46875,719516.1875,719368.5625,249899.9375,220856.078125,224801.96875,0.0
1775427359.6234546,237355.328125,718943.6875,265206.3125,719517.8125,719369.8125,249901.28125,220855.265625,224773.359375,0.0
1775427359.6276052,237352.375,718943.0,265200.15625,719517.1875,719368.9375,249900.828125,220855.8125,224781.578125,0.0
1775427359.6411004,237356.578125,718942.75,265201.5,719517.375,719369.5,249905.296875,220859.75,224807.515625,0.0
1775427359.6436555,237346.484375,718942.4375,265193.1875,719517.375,719369.0,249901.984375,220855.0,224805.71875,0.0
1775427359.6437035,237343.890625,718940.875,265187.8125,719515.5,719367.3125,249900.65625,220850.890625,224769.0625,0.0
1775427359.6485066,237347.734375,718941.8125,265185.03125,719516.1875,719367.9375,249898.59375,220850.171875,224781.140625,0.0
1775427359.654746,237354.796875,718945.0625,265189.0625,719519.0625,719370.875,249902.625,220853.484375,224802.859375,0.0
1775427359.657402,237350.328125,718946.125,265187.46875,719520.375,719372.125,249902.890625,220857.6875,224819.125,0.0
1775427359.6574636,237343.078125,718943.8125,265182.71875,719518.0625,719370.125,249901.09375,220853.390625,224764.328125,0.0
1775427359.659827,237346.5625,718944.6875,265178.875,719518.8125,719370.5625,249899.484375,220850.625,224773.171875,0.0
1775427359.668134,237351.3125,718945.5,265177.625,719519.6875,719371.875,249901.1875,220849.90625,224789.0,0.0
1775427359.6712532,237353.28125,718946.375,265179.15625,719520.9375,719372.9375,249900.203125,220850.265625,224823.421875,0.0
1775427359.6713555,237345.234375,718942.625,265171.90625,719517.25,719369.0,249896.890625,220845.171875,224769.875,0.0
1775427359.6737049,237352.734375,718944.0,265174.21875,719518.3125,719370.0,249900.46875,220846.78125,224769.875,0.0
1775427359.6822188,237356.3125,718945.5625,265174.5,719520.1875,719372.0,249902.265625,220849.90625,224780.328125,0.0
1775427359.6863985,237358.734375,718947.0,265173.59375,719521.75,719374.1875,249902.265625,220853.65625,224820.203125,0.0
1775427359.6864476,237347.015625,718945.25,265164.3125,719519.3125,719371.8125,249901.09375,220846.328125,224771.125,0.0
1775427359.6883569,237351.125,718944.3125,265163.0625,719518.125,719371.0,249900.5625,220841.328125,224762.453125,0.0
1775427359.6993349,237355.15625,718946.375,265164.3125,719520.1875,719372.6875,249902.171875,220845.171875,224774.78125,0.0
1775427359.7054832,237359.984375,718950.25,265163.0625,719523.8125,719375.8125,249901.8125,220849.734375,224821.28125,0.0
1775427359.705552,237354.078125,718948.4375,265157.9375,719521.75,719374.3125,249903.15625,220850.171875,224791.859375,0.0
1775427359.707127,237359.625,718947.5625,265160.0,719521.125,719373.875,249905.65625,220852.59375,224769.25,0.0
1775427359.7094464,237353.0,718947.5,265153.03125,719521.375,719373.6875,249904.40625,220848.921875,224776.75,0.0
1775427359.7222347,237353.1875,718949.5,265148.375,719523.5,719375.5625,249903.59375,220852.234375,224814.21875,0.0
1775427359.726922,237352.828125,718946.875,265150.1875,719520.8125,719372.625,249908.515625,220852.5,224800.265625,0.0
1775427359.7296288,237357.921875,718946.9375,265154.65625,719521.3125,719372.875,249912.1875,220856.609375,224775.140625,0.0
1775427359.7318115,237357.03125,718949.375,265147.65625,719523.3125,719375.75,249910.84375,220860.1875,224791.0625,0.0
1775427359.734646,237365.609375,718952.0,265149.0,719526.375,719378.75,249916.921875,220866.71875,224821.359375,0.0
1775427359.7396474,237365.53125,718952.75,265148.75,719527.25,719379.1875,249919.0625,220868.234375,224823.0625,0.0
1775427359.7446063,237364.8125,718950.3125,265146.40625,719524.3125,719376.4375,249919.875,220868.59375,224777.734375,0.0
1775427359.7475216,237368.203125,718948.8125,265142.3125,719522.6875,719374.9375,249919.421875,220867.4375,224790.875,0.0
1775427359.7476177,237369.1875,718950.25,265138.71875,719524.125,719376.0625,249919.515625,220866.359375,224817.515625,0.0
1775427359.749604,237365.875,718951.3125,265132.75,719525.0625,719377.0,249916.75,220866.359375,224837.015625,0.0
1775427359.768234,237359.4375,718948.0,265122.28125,719522.25,719374.0625,249914.234375,220859.65625,224781.578125,0.0
1775427359.7772906,237356.5,718946.125,265116.90625,719520.9375,719372.5,249908.875,220855.625,224789.8125,0.0
1775427359.777436,237358.640625,718947.9375,265116.90625,719522.4375,719374.5625,249907.09375,220857.15625,224803.03125,0.0
1775427359.7774568,237359.796875,718949.8125,265115.9375,719523.8125,719376.1875,249907.71875,220857.234375,224829.59375,0.0
1775427359.7803564,237356.765625,718949.625,265112.1875,719523.3125,719375.375,249912.453125,220854.5625,224779.609375,0.0
1775427359.780434,237364.890625,718950.0,265115.46875,719523.6875,719375.625,249917.28125,220859.03125,224785.96875,0.0
1775427359.7874384,237365.171875,718950.9375,265112.71875,719525.125,719377.0,249915.9375,220861.265625,224797.140625,0.0
1775427359.7894728,237365.703125,718953.375,265110.125,719527.4375,719379.125,249910.84375,220859.125,224833.96875,0.0
1775427359.791863,237351.3125,718952.3125,265099.65625,719525.875,719377.875,249910.21875,220853.84375,224786.59375,0.0
1775427359.7946377,237356.40625,718952.375,265096.53125,719526.5,719378.3125,249909.953125,220852.328125,224776.578125,0.0
1775427359.7971747,237358.1875,718953.1875,265093.5,719527.5625,719379.8125,249909.59375,220852.6875,224785.6875,0.0
1775427359.8010218,237363.28125,718955.0,265093.5,719529.25,719381.375,249910.671875,220858.140625,224827.265625,0.0
1775427359.8072393,237354.890625,718952.5,265084.90625,719526.3125,719378.3125,249912.453125,220857.421875,224798.75,0.0
1775427359.8115494,237356.3125,718950.9375,265080.625,719524.875,719376.875,249909.765625,220858.140625,224780.59375,0.0
1775427359.8116248,237354.34375,718951.3125,265075.0625,719525.375,719377.3125,249907.171875,220853.21875,224785.25,0.0
1775427359.8222313,237360.421875,718954.4375,265075.6875,719528.4375,719380.3125,249907.625,220856.53125,224816.890625,0.0
1775427359.8261929,237351.21875,718954.25,265068.53125,719528.8125,719380.5,249907.796875,220857.0625,224799.640625,0.0
1775427359.8262594,237356.3125,718952.0,265069.625,719527.0,719378.9375,249913.703125,220857.0625,224767.0,0.0
1775427359.8326735,237362.75,718952.3125,265074.28125,719526.75,719378.5625,249918.71875,220860.546875,224780.6875,0.0
1775427359.8327336,237370.078125,718956.125,265078.125,719530.125,719382.0625,249921.84375,220865.46875,224809.75,0.0
1775427359.8465135,237367.40625,718956.3125,265075.6875,719530.3125,719382.1875,249922.828125,220869.125,224813.953125,0.0
1775427359.8465612,237370.703125,718952.75,265077.65625,719526.75,719378.5,249927.46875,220872.078125,224764.59375,0.0
1775427359.853366,237369.90625,718953.5625,265074.0,719527.5625,719379.6875,249922.109375,220868.234375,224770.21875,0.0
1775427359.8561547,237375.265625,718955.1875,265075.53125,719529.125,719381.375,249927.03125,220870.828125,224789.453125,0.0
1775427359.856262,237375.359375,718958.625,265075.25,719532.75,719384.875,249929.96875,220871.8125,224809.75,0.0
1775427359.8583527,237370.984375,718955.3125,265070.96875,719529.4375,719381.25,249929.34375,220867.703125,224758.953125,0.0
1775427359.8611944,237373.390625,718954.4375,265066.40625,719529.0,719381.125,249928.09375,220867.875,224770.3125,0.0
1775427359.8676589,237377.5,718957.6875,265069.4375,719531.8125,719384.0625,249930.78125,220871.640625,224787.125,0.0
1775427359.8677096,237375.984375,718959.8125,265066.03125,719533.875,719386.0,249927.921875,220869.3125,224816.984375,0.0
1775427359.8760378,237369.09375,718956.5,265059.4375,719530.5625,719383.0,249929.265625,220868.234375,224767.28125,0.0
1775427359.8903384,237371.15625,718954.8125,265057.5625,719529.0,719381.4375,249930.78125,220872.890625,224767.453125,0.0
1775427359.8904357,237365.609375,718954.0,265048.4375,719528.0,719380.5,249926.21875,220870.65625,224773.625,0.0
1775427359.8932292,237368.921875,718955.8125,265047.96875,719529.625,719381.75,249926.046875,220872.53125,224813.234375,0.0
1775427359.8933356,237357.921875,718954.25,265041.09375,719528.0625,719380.3125,249922.5625,220868.6875,224773.4375,0.0
1775427359.8933558,237361.140625,718955.875,265038.6875,719529.875,719381.875,249921.03125,220870.46875,224769.15625,0.0
1775427359.8958752,237361.859375,718956.75,265035.90625,719530.5,719382.625,249920.59375,220870.921875,224780.421875,0.0
1775427359.904323,237364.453125,718958.0,265034.125,719532.125,719384.3125,249921.390625,220870.5625,224822.53125,0.0
1775427359.9071293,237355.234375,718956.0625,265029.75,719529.9375,719382.0625,249923.890625,220865.828125,224790.4375,0.0
1775427359.9103007,237355.421875,718957.125,265029.75,719531.1875,719383.0625,249920.59375,220866.1875,224765.390625,0.0
1775427359.910378,237356.40625,718959.25,265028.59375,719533.25,719385.375,249919.6875,220865.734375,224775.765625,0.0
1775427359.9119232,237358.453125,718959.0,265025.8125,719533.1875,719385.1875,249917.1875,220867.796875,224814.578125,0.0
1775427359.925978,237351.84375,718956.5,265020.28125,719530.375,719382.625,249914.6875,220864.390625,224804.375,0.0
1775427359.9287808,237356.9375,718956.75,265024.03125,719530.9375,719383.125,249915.671875,220863.3125,224772.1875,0.0
1775427359.9288557,237366.0625,718958.125,265027.875,719531.5625,719384.3125,249921.03125,220865.734375,224789.09375,0.0
1775427359.9308846,237368.109375,718960.0,265024.03125,719533.625,719386.375,249921.21875,220866.09375,224819.671875,0.0
1775427359.952325,237364.890625,718959.625,265020.09375,719533.375,719385.8125,249922.28125,220867.15625,224821.015625,0.0
1775427359.955531,237366.859375,718960.5,265021.34375,719534.875,719387.0625,249928.1875,220871.28125,224772.640625,0.0
1775427359.9556463,237374.734375,718963.625,265023.5625,719537.5625,719389.6875,249931.9375,220876.1875,224784.359375,0.0
1775427359.9567363,237382.25,718965.4375,265026.34375,719539.4375,719391.1875,249933.109375,220884.15625,224810.546875,0.0
1775427359.9597127,237387.078125,718967.6875,265029.65625,719541.75,719393.875,249942.5,220894.078125,224841.484375,0.0
1775427359.9620233,237388.328125,718966.9375,265028.03125,719540.9375,719393.0625,249951.171875,220899.625,224792.3125,0.0
1775427359.9647577,237397.890625,718968.5625,265030.5625,719542.125,719394.4375,249950.359375,220902.21875,224799.1875,0.0
1775427359.9693356,237392.609375,718966.3125,265024.375,719540.5,719392.375,249944.453125,220898.546875,224803.390625,0.0
1775427359.9720285,237385.546875,718966.0625,265016.5,719540.6875,719392.5625,249938.015625,220896.125,224826.734375,0.0
1775427359.9774497,237373.75,718959.625,265006.9375,719533.8125,719386.1875,249935.703125,220890.328125,224771.125,0.0
1775427359.977487,237377.953125,718959.8125,265005.78125,719534.25,719386.1875,249934.53125,220888.265625,224774.0625,0.0
1775427359.979227,237382.6875,718961.6875,265008.71875,719536.0625,719387.875,249935.703125,220891.125,224790.15625,0.0
1775427359.9938593,237388.40625,718964.8125,265014.90625,719539.0,719391.0,249938.46875,220898.28125,224835.21875,0.0
1775427359.9939587,237374.90625,718961.6875,265006.40625,719535.4375,719387.6875,249935.078125,220893.71875,224787.65625,0.0
1775427359.995967,237377.859375,718961.875,265004.875,719535.6875,719388.3125,249936.328125,220894.34375,224774.15625,0.0
1775427359.9980154,237376.515625,718964.25,265002.5625,719538.1875,719390.75,249940.609375,220897.734375,224782.203125,0.0
1775427360.0028093,237375.453125,718965.6875,265000.3125,719540.3125,719392.6875,249938.015625,220899.796875,224819.484375,0.0
1775427360.0028896,237365.34375,718964.1875,264991.65625,719538.8125,719391.1875,249938.375,220899.0,224792.671875,0.0
1775427360.0110059,237369.640625,718963.5,264992.625,719537.9375,719389.9375,249939.984375,220903.28125,224772.1875,0.0
1775427360.016166,237368.65625,718965.375,264989.25,719539.875,719391.75,249937.75,220899.890625,224780.421875,0.0
1775427360.0162215,237375.453125,718967.9375,264988.34375,719542.5,719394.4375,249935.078125,220897.46875,224812.25,0.0
1775427360.0180545,237369.8125,718967.4375,264981.375,719541.6875,719393.875,249936.953125,220894.875,224796.0625,0.0
1775427360.0217576,237361.140625,718964.1875,264971.8125,719538.5625,719390.75,249934.453125,220891.21875,224756.453125,0.0
1775427360.0363188,237362.390625,718965.1875,264967.4375,719539.625,719391.4375,249928.640625,220890.765625,224769.6875,0.0
1775427360.0363765,237367.40625,718967.25,264965.28125,719541.5625,719393.4375,249928.28125,220892.28125,224795.34375,0.0
1775427360.040527,237363.46875,718966.625,264958.75,719540.75,719393.0,249929.078125,220890.59375,224801.703125,0.0
1775427360.043033,237365.171875,718965.4375,264959.03125,719539.875,719391.9375,249932.03125,220893.1875,224763.25,0.0
1775427360.0461984,237369.90625,718968.5625,264960.375,719542.8125,719394.9375,249935.34375,220898.90625,224781.84375,0.0
1775427360.0462387,237374.46875,718970.625,264964.125,719545.0,719396.8125,249939.625,220902.84375,224798.125,0.0
1775427360.055613,237369.90625,718972.4375,264959.375,719547.0625,719399.0,249937.671875,220901.578125,224816.265625,0.0
1775427360.07293,237368.203125,718968.3125,264953.84375,719542.5,719394.6875,249935.96875,220897.46875,224756.8125,0.0
1775427360.0729532,237370.890625,718965.0,264950.25,719539.25,719391.0,249934.890625,220895.5,224758.421875,0.0
1775427360.0729623,237373.390625,718966.3125,264947.9375,719540.9375,719393.0,249938.734375,220896.3125,224770.40625,0.0
1775427360.0760832,237378.84375,718970.5625,264946.875,719544.625,719396.5,249940.703125,220895.59375,224806.875,0.0
1775427360.0760999,237377.6875,718967.75,264949.0,719541.875,719393.8125,249948.484375,220898.1875,224759.40625,0.0
1775427360.0804715,237378.3125,718970.0625,264948.75,719544.5,719396.125,249947.859375,220901.140625,224767.8125,0.0
1775427360.0831597,237379.03125,718971.9375,264946.5,719546.4375,719398.0,249948.3125,220902.5625,224785.609375,0.0
1775427360.0856164,237380.09375,718974.375,264945.0,719548.8125,719400.6875,249948.125,220905.15625,224824.5,0.0
1775427360.0880146,237371.6875,718971.4375,264940.5,719546.125,719397.875,249951.875,220904.984375,224784.984375,0.0
1775427360.0917296,237383.3125,718969.9375,264945.34375,719544.375,719395.9375,249952.5,220907.3125,224773.984375,0.0
1775427360.1061616,237383.40625,718970.625,264941.6875,719545.0625,719396.5625,249954.296875,220908.375,224782.828125,0.0
1775427360.106252,237388.59375,718973.25,264943.65625,719547.5,719399.5,249959.296875,220915.171875,224828.078125,0.0
1775427360.1090505,237386.71875,718972.625,264944.28125,719547.375,719399.125,249963.953125,220916.0625,224803.84375,0.0
1775427360.1091015,237388.6875,718973.375,264944.09375,719548.125,719399.5,249961.984375,220914.734375,224775.671875,0.0
1775427360.1202931,237388.234375,718971.875,264941.6875,719546.75,719398.875,249959.84375,220909.546875,224780.15625,0.0
1775427360.1203582,237390.015625,718975.5625,264941.9375,719550.25,719402.625,249957.875,220908.375,224811.0,0.0
1775427360.1267097,237389.21875,718974.375,264942.9375,719549.0625,719401.3125,249962.875,220913.5625,224804.109375,0.0
1775427360.1267862,237380.984375,718972.0625,264931.75,719547.0625,719398.875,249955.1875,220905.78125,224761.375,0.0
1775427360.1340673,237380.984375,718973.6875,264928.8125,719548.125,719399.9375,249954.921875,220905.25,224773.796875,0.0
1775427360.13415,237375.0,718975.0,264919.875,719549.6875,719401.75,249949.015625,220903.109375,224803.390625,0.0
1775427360.135923,237373.578125,718975.625,264916.71875,719550.625,719402.3125,249950.265625,220902.125,224816.890625,0.0
1775427360.1380243,237374.375,718973.25,264914.21875,719547.6875,719399.6875,249952.234375,220899.96875,224768.34375,0.0
1775427360.1521223,237380.8125,718974.75,264914.75,719549.0,719401.125,249951.875,220896.484375,224779.171875,0.0
1775427360.1621585,237382.78125,718976.875,264914.0625,719551.0625,719403.625,249948.65625,220898.359375,224799.1875,0.0
1775427360.1623409,237377.5,718976.8125,264908.6875,719551.0625,719403.625,249947.5,220897.03125,224822.625,0.0
1775427360.162361,237377.234375,718971.9375,264907.0625,719546.0625,719398.375,249950.71875,220899.265625,224770.765625,0.0
1775427360.164976,237378.9375,718972.6875,264904.125,719547.0625,719399.25,249949.015625,220900.875,224779.53125,0.0
1775427360.165064,237376.96875,718975.0,264903.6875,719549.1875,719401.9375,249950.984375,220901.046875,224791.140625,0.0
1775427360.167177,237375.984375,718977.875,264904.84375,719552.375,719404.4375,249951.875,220901.046875,224823.6875,0.0
1775427360.1709287,237367.84375,718975.625,264902.875,719550.0,719402.0,249952.421875,220901.046875,224771.390625,0.0
1775427360.2012186,237371.421875,718976.1875,264903.0625,719550.4375,719402.1875,249953.125,220902.5625,224768.171875,0.0
1775427360.2012675,237369.1875,718976.875,264895.90625,719551.0625,719403.0,249948.84375,220896.9375,224779.796875,0.0
1775427360.2041187,237370.890625,718977.9375,264893.65625,719552.25,719404.25,249947.859375,220898.90625,224828.515625,0.0
1775427360.2041938,237361.671875,718975.4375,264886.15625,719549.6875,719401.75,249950.453125,220898.8125,224790.515625,0.0
1775427360.2056608,237368.390625,718976.375,264886.0625,719550.625,719402.5625,249953.671875,220900.875,224769.6875,0.0
1775427360.2084632,237370.078125,718977.5,264881.6875,719551.9375,719404.0,249952.78125,220899.4375,224773.890625,0.0
1775427360.2108,237372.859375,718979.3125,264884.46875,719553.8125,719405.6875,249954.921875,220903.1875,224811.0,0.0
1775427360.2131205,237365.609375,718975.875,264881.9375,719550.625,719402.8125,249956.4375,220900.328125,224784.625,0.0
1775427360.2160113,237373.03125,718975.1875,264883.28125,719550.0625,719402.125,249955.1875,220903.734375,224751.359375,0.0
1775427360.2183867,237371.25,718975.875,264878.28125,719550.6875,719402.9375,249950.0,220901.3125,224757.53125,0.0
1775427360.2208345,237381.703125,718978.5,264883.75,719553.3125,719405.3125,249952.859375,220905.703125,224786.046875,0.0
1775427360.2239656,237380.09375,718977.4375,264883.375,719552.125,719404.25,249956.265625,220905.34375,224774.96875,0.0
1775427360.224018,237385.28125,718973.75,264883.75,719548.0,719400.4375,249960.546875,220906.5,224735.984375,0.0
1775427360.2298768,237383.5,718974.125,264878.46875,719548.5625,719400.6875,249955.453125,220910.4375,224749.125,0.0
1775427360.2391517,237381.34375,718978.25,264875.53125,719552.875,719404.875,249950.984375,220908.828125,224777.015625,0.0
1775427360.2392256,237381.609375,718980.1875,264874.8125,719554.875,719406.75,249954.921875,220909.09375,224792.484375,0.0
1775427360.2405975,237380.453125,718976.375,264869.625,719551.0625,719402.625,249956.265625,220909.28125,224739.296875,0.0
1775427360.2446113,237377.6875,718973.9375,264860.6875,719548.625,719400.3125,249951.609375,220906.6875,224741.96875,0.0
1775427360.2517729,237379.03125,718974.3125,264857.1875,719549.0,719400.75,249949.375,220907.3125,224757.078125,0.0
1775427360.2519772,237374.734375,718976.8125,264853.25,719551.125,719403.0,249949.203125,220906.859375,224787.921875,0.0
1775427360.2660768,237374.46875,718975.25,264852.34375,719549.8125,719401.5625,249953.125,220907.125,224741.703125,0.0
1775427360.271334,237373.21875,718976.25,264848.6875,719551.0625,719403.0,249950.71875,220904.625,224752.703125,0.0
1775427360.2714074,237375.1875,718976.25,264848.34375,719551.5,719402.9375,249954.296875,220907.125,224763.4375,0.0
1775427360.2755673,237377.421875,718980.125,264846.8125,719555.0625,719406.75,249952.953125,220909.359375,224797.40625,0.0
1775427360.2786386,237366.234375,718975.75,264836.96875,719550.6875,719402.4375,249950.359375,220901.234375,224744.921875,0.0
1775427360.2806597,237366.953125,718975.125,264836.90625,719550.0,719401.6875,249947.765625,220898.546875,224742.6875,0.0
1775427360.2839057,237367.84375,718979.0625,264836.0,719553.3125,719405.875,249948.125,220901.046875,224753.421875,0.0
1775427360.283954,237370.890625,718981.6875,264836.4375,719556.0,719408.25,249949.640625,220902.84375,224790.875,0.0
1775427360.287639,237366.78125,718978.6875,264833.84375,719553.0,719405.5,249952.328125,220901.3125,224751.71875,0.0
1775427360.2980886,237378.046875,718978.6875,264837.25,719553.0,719405.5625,249956.171875,220905.078125,224736.78125,0.0
1775427360.3036883,237374.28125,718977.6875,264829.5625,719552.5,719404.6875,249952.421875,220902.84375,224741.96875,0.0
1775427360.303729,237379.375,718979.5625,264828.9375,719554.375,719406.6875,249951.171875,220906.328125,224781.765625,0.0
1775427360.3054953,237371.421875,718978.875,264824.375,719553.375,719405.4375,249954.46875,220904.171875,224761.734375,0.0
1775427360.3124003,237371.6875,718979.3125,264820.09375,719553.5625,719405.75,249951.703125,220906.6875,224733.21875,0.0
1775427360.3144991,237371.609375,718979.125,264813.5625,719553.3125,719405.75,249950.265625,220904.625,224735.53125,0.0
1775427360.320313,237374.546875,718980.625,264808.8125,719555.4375,719407.5625,249945.53125,220902.296875,224762.453125,0.0
1775427360.320388,237366.953125,718981.25,264802.75,719556.0625,719408.5625,249945.625,220898.90625,224762.453125,0.0
