timestamps,Fz,C3,Cz,C4,Pz,PO7,Oz,PO8,stim
1763590779.81203,251983.03125,242377.40625,7714.1240234375,689492.1875,688279.375,538658.625,686950.125,687257.875,0.0
1763590779.814432,251982.5,242386.703125,7720.650390625,689441.625,688188.25,538734.75,686914.5625,687157.8125,0.0
1763590779.8483083,252025.9375,242381.25,7712.33544921875,689426.25,688271.5625,538934.625,686975.875,687194.375,0.0
1763590779.8483582,252037.296875,242382.6875,7714.57080078125,689382.1875,688322.5625,539113.3125,687007.75,687222.1875,0.0
1763590779.855517,252017.0,242389.390625,7719.93505859375,689303.75,688274.6875,539218.625,686968.3125,687183.3125,0.0
1763590779.8555665,251993.671875,242393.140625,7719.93505859375,689223.875,688149.5625,539269.3125,686911.875,687057.0625,0.0
1763590779.8583164,252037.390625,242388.9375,7711.53125,689212.75,688230.4375,539471.6875,686993.6875,687093.0,0.0
1763590779.8604932,252040.34375,242390.828125,7706.255859375,689158.6875,688289.875,539655.8125,687029.4375,687123.125,0.0
1763590779.8633552,252018.796875,242395.5625,7710.54736328125,689081.3125,688246.125,539758.0,686985.4375,687085.125,0.0
1763590779.8656228,251994.03125,242404.046875,7718.8623046875,689000.25,688115.5625,539805.75,686876.375,686961.0625,0.0
1763590779.870777,252035.15625,242394.3125,7712.33544921875,688986.5625,688163.8125,539981.4375,686904.25,686970.25,0.0
1763590779.8729813,252045.96875,242394.9375,7709.474609375,688944.4375,688236.0,540177.0625,686953.1875,687008.0,0.0
1763590779.875746,252031.9375,242397.796875,7707.2392578125,688877.3125,688214.8125,540298.125,686941.0,686980.25,0.0
1763590779.8758092,251977.671875,242394.390625,7696.60009765625,688764.375,688057.5625,540318.6875,686924.1875,686731.875,0.0
1763590779.8783133,251996.53125,242374.546875,7675.052734375,688724.875,688051.75,540448.125,686944.6875,686808.4375,0.0
1763590779.8783867,252011.8125,242365.515625,7662.5361328125,688676.5,688127.0,540642.125,686986.875,687220.5,0.0
1763590779.8809123,252015.3125,242376.609375,7669.6884765625,688627.3125,688139.25,540788.75,686991.1875,687317.8125,0.0
1763590779.8831952,251984.28125,242391.984375,7680.0595703125,688539.6875,688024.1875,540845.125,686914.5625,687213.625,0.0
1763590779.8855684,252013.421875,242393.859375,7680.5068359375,688512.5,688007.5625,540973.125,686953.6875,687171.0,0.0
1763590779.8856196,252045.703125,242396.09375,7680.8642578125,688488.8125,688107.3125,541186.25,687026.4375,687226.0625,0.0
1763590779.8883288,252040.96875,242401.46875,7678.271484375,688432.125,688120.75,541328.3125,687026.75,687227.9375,0.0
1763590779.8984957,252008.234375,242410.40625,7681.22216796875,688341.3125,688014.875,541391.375,686936.4375,687135.0625,0.0
1763590779.9019823,252024.0625,242417.5625,7688.19580078125,688304.375,687952.9375,541487.9375,686878.8125,687055.9375,0.0
1763590779.9020324,252060.984375,242411.921875,7684.44091796875,688284.625,688037.75,541686.75,686930.75,687093.1875,0.0
1763590779.9080107,252062.25,242407.265625,7679.076171875,688228.6875,688066.0,541842.3125,686944.625,687103.5625,0.0
1763590779.908059,252031.3125,242413.625,7680.685546875,688139.8125,687973.5625,541909.5,686916.25,687023.0,0.0
1763590779.9105856,252026.5625,242413.53125,7680.8642578125,688079.8125,687877.0,541981.375,686888.1875,686919.375,0.0
1763590779.9169073,252071.09375,242411.828125,7680.14892578125,688066.9375,687970.75,542191.75,686947.9375,686966.875,0.0
1763590779.937056,252068.328125,242407.71875,7674.96337890625,688008.875,688013.4375,542360.125,686970.6875,686985.4375,0.0
1763590779.9371047,252041.765625,242412.09375,7677.37744140625,687928.5,687946.125,542444.3125,686926.875,686902.3125,0.0
1763590779.9396353,252003.765625,242397.4375,7661.19482421875,687838.25,687803.5625,542475.0,686932.25,686655.5625,0.0
1763590779.9397097,252020.9375,242371.0625,7633.478515625,687802.1875,687841.6875,542628.875,686972.125,686858.3125,0.0
1763590779.9445152,252027.375,242367.84375,7626.326171875,687752.5625,687896.25,542803.3125,687000.6875,687259.5,0.0
1763590779.9468007,252020.765625,242381.078125,7634.81982421875,687692.6875,687869.875,542918.375,686975.8125,687317.875,0.0
1763590779.95081,251993.40625,242391.359375,7639.37939453125,687613.125,687735.875,542960.0,686923.5,687189.125,0.0
1763590779.9508576,252038.28125,242394.390625,7638.66455078125,687606.125,687784.3125,543135.5,686982.75,687198.0,0.0
1763590779.9544976,252054.28125,242395.734375,7637.05517578125,687566.875,687869.25,543340.0,687039.5625,687245.4375,0.0
1763590779.966899,252044.1875,242400.828125,7636.1611328125,687502.875,687855.375,543463.5625,687022.8125,687230.625,0.0
1763590779.9669473,252002.15625,242410.140625,7638.75390625,687404.0625,687707.25,543492.0625,686932.625,687092.5,0.0
1763590780.0032504,252037.5625,242407.546875,7634.9091796875,687385.375,687712.0625,543635.875,686959.0625,687064.375,0.0
1763590780.0033102,252061.625,242406.828125,7632.763671875,687354.1875,687796.125,543838.8125,687013.25,687106.875,0.0
1763590780.003327,252060.90625,242414.515625,7635.7138671875,687300.25,687802.1875,543979.1875,687010.5,687107.4375,0.0
1763590780.0059264,252025.234375,242426.046875,7641.7041015625,687209.0,687680.625,544031.375,686921.875,686998.625,0.0
1763590780.0059764,252045.609375,242421.671875,7636.9658203125,687176.3125,687648.875,544148.125,686929.75,686942.25,0.0
1763590780.0082877,252072.078125,242413.53125,7626.1474609375,687147.5625,687742.5625,544355.5,686993.5,686990.3125,0.0
1763590780.0108073,252069.84375,242411.46875,7620.87255859375,687085.75,687764.1875,544506.25,687002.4375,686999.75,0.0
1763590780.0130315,252037.921875,242423.359375,7630.79638671875,686996.4375,687662.0625,544567.9375,686924.9375,686895.875,0.0
1763590780.015509,252034.53125,242415.3125,7622.9287109375,686943.625,687578.3125,544641.875,686918.5625,686689.8125,0.0
1763590780.0183506,252046.6875,242386.078125,7592.3515625,686902.0625,687643.9375,544820.25,686974.125,686877.375,0.0
1763590780.02132,252043.109375,242384.296875,7588.328125,686849.75,687672.75,544975.625,686984.1875,687263.9375,0.0
1763590780.0231917,252022.28125,242401.546875,7600.1298828125,686779.1875,687600.5,545061.8125,686941.5,687285.5,0.0
1763590780.0256588,252013.703125,242408.34375,7602.63330078125,686718.125,687500.6875,545128.4375,686935.1875,687178.5625,0.0
1763590780.0282624,252063.859375,242408.53125,7603.974609375,686706.5,687587.1875,545329.5,686998.0,687218.0,0.0
1763590780.0308063,252072.25,242409.515625,7603.7060546875,686658.4375,687638.3125,545507.5625,687028.5625,687243.5,0.0
1763590780.0329862,252055.0,242417.90625,7608.80224609375,686604.875,687596.3125,545617.8125,686992.0,687209.0625,0.0
1763590780.0330396,252037.03125,242427.5625,7615.59716796875,686552.1875,687474.0625,545671.0,686891.3125,687089.4375,0.0
1763590780.035447,252082.09375,242421.578125,7610.23291015625,686575.375,687542.4375,545859.0625,686933.3125,687114.75,0.0
1763590780.0393155,252084.421875,242411.296875,7597.62646484375,686670.3125,687598.0625,546035.4375,686966.9375,687139.0625,0.0
1763590780.0458615,252056.875,242407.0,7588.328125,686641.0625,687548.125,546126.625,686934.6875,687092.125,0.0
1763590780.0459125,252012.4375,242404.765625,7579.83447265625,686559.1875,687390.8125,546144.6875,686888.0,686942.5625,0.0
1763590780.0810838,252047.578125,242395.734375,7566.42333984375,686556.375,687423.125,546303.75,686911.1875,686937.4375,0.0
1763590780.0811336,252056.34375,242391.625,7559.09228515625,686596.1875,687489.375,546484.625,686950.0625,686966.25,0.0
1763590780.0833168,252029.609375,242379.28125,7542.28369140625,686654.75,687461.5625,546591.9375,686924.6875,686925.5625,0.0
1763590780.0833664,251957.375,242360.78125,7519.3955078125,686585.1875,687283.75,546584.9375,686895.3125,686650.375,0.0
1763590780.085831,251960.40625,242327.609375,7484.34765625,686560.6875,687247.6875,546678.8125,686912.9375,686706.25,0.0
1763590780.0879943,251972.65625,242311.609375,7465.8408203125,686527.875,687321.875,546863.0625,686951.1875,687129.5625,0.0
1763590780.090784,251967.03125,242310.71875,7463.33740234375,686481.125,687328.6875,546999.25,686949.0,687292.375,0.0
1763590780.0933225,251922.5,242314.46875,7464.052734375,686392.25,687198.4375,547037.125,686896.25,687176.6875,0.0
1763590780.093372,251937.96875,242310.265625,7460.029296875,686361.6875,687153.75,547138.0,686921.6875,687108.125,0.0
1763590780.097028,251968.28125,242299.984375,7449.2109375,686338.125,687244.0,547339.5,686975.5625,687150.0625,0.0
1763590780.097078,251963.53125,242294.265625,7438.5712890625,686287.25,687274.875,547497.75,686993.75,687165.875,0.0
1763590780.0970871,251920.796875,242300.875,7439.3759765625,686194.0,687168.8125,547555.5625,686921.5625,687070.6875,0.0
1763590780.0997136,251920.4375,242298.90625,7436.06787109375,686146.5625,687087.5625,547631.0,686907.75,686973.5625,0.0
1763590780.1057668,251960.59375,242294.984375,7428.55810546875,686133.125,687179.9375,547834.375,686971.25,687016.0625,0.0
1763590780.11077,251955.046875,242288.09375,7418.455078125,686079.75,687216.8125,547995.6875,686993.25,687031.3125,0.0
1763590780.1134238,251925.0,242293.28125,7421.0478515625,686002.0,687147.125,548076.6875,686934.9375,686970.625,0.0
1763590780.1134968,251914.984375,242298.109375,7424.2666015625,685946.75,687041.4375,548135.8125,686846.4375,686858.5625,0.0
1763590780.118478,251952.09375,242285.859375,7407.189453125,685931.1875,687129.0625,548337.5625,686907.5,686898.3125,0.0
1763590780.1209505,251954.15625,242286.84375,7401.0205078125,685881.0,687189.375,548520.75,686952.3125,686931.1875,0.0
1763590780.1546395,251925.546875,242290.78125,7397.35498046875,685805.4375,687144.5,548621.6875,686920.4375,686881.3125,0.0
1763590780.1581297,251881.1875,242279.875,7383.49658203125,685709.1875,687003.9375,548650.3125,686888.8125,686633.75,0.0
1763590780.1581998,251900.234375,242248.390625,7353.0087890625,685680.5,687043.125,548802.6875,686943.625,686768.625,0.0
1763590780.1582189,251906.9375,242240.703125,7343.53173828125,685637.5,687113.5,548986.3125,686987.6875,687187.1875,0.0
1763590780.1582327,251895.859375,242246.78125,7345.677734375,685575.875,687096.5,549106.75,686970.4375,687270.5,0.0
1763590780.1619804,251870.640625,242261.09375,7353.99267578125,685495.25,686973.125,549158.625,686872.625,687153.5625,0.0
1763590780.1620276,251916.421875,242260.5625,7352.38330078125,685490.375,687019.0,549332.5625,686902.3125,687160.4375,0.0
1763590780.1620362,251931.265625,242259.03125,7348.44921875,685456.0,687107.75,549536.4375,686966.9375,687209.875,0.0
1763590780.162043,251921.515625,242265.390625,7348.71728515625,685402.9375,687106.625,549667.9375,686961.9375,687206.5625,0.0
1763590780.1643116,251888.53125,242281.828125,7357.8369140625,685322.6875,686981.375,549714.625,686860.8125,687091.9375,0.0
1763590780.1669967,251922.671875,242278.796875,7355.4228515625,685304.3125,686980.75,549851.875,686852.6875,687060.75,0.0
1763590780.1695461,251946.546875,242269.40625,7345.0517578125,685271.25,687078.0,550060.625,686923.0625,687115.125,0.0
1763590780.17301,251933.765625,242267.703125,7338.7041015625,685210.75,687086.3125,550196.6875,686922.0625,687115.375,0.0
1763590780.2220354,251891.65625,242276.109375,7341.56494140625,685117.3125,686966.5625,550243.9375,686865.75,687008.0,0.0
1763590780.2259712,251911.859375,242280.671875,7344.51513671875,685086.375,686925.8125,550352.125,686872.8125,686945.375,0.0
1763590780.2260444,251948.25,242277.90625,7340.40283203125,685072.0,687026.875,550562.75,686938.5,686998.6875,0.0
1763590780.226064,251946.015625,242282.546875,7339.5087890625,685023.6875,687052.5,550714.375,686951.9375,687010.25,0.0
1763590780.2299154,251906.140625,242289.25,7337.630859375,684934.1875,686947.625,550770.625,686880.5,686916.1875,0.0
1763590780.229992,251901.125,242283.984375,7331.1044921875,684880.0,686855.5625,550838.3125,686855.8125,686811.3125,0.0
1763590780.230012,251939.75,242277.09375,7322.52099609375,684863.0,686940.3125,551036.125,686910.625,686848.75,0.0
1763590780.2320583,251938.6875,242274.5,7317.78271484375,684815.625,686980.0,551199.75,686933.0,686866.375,0.0
1763590780.2344134,251904.0,242278.96875,7316.35205078125,684732.5,686899.375,551269.3125,686899.0625,686731.375,0.0
1763590780.2367516,251855.984375,242258.859375,7291.4970703125,684633.5,686745.5,551278.4375,686878.375,686528.5,0.0
1763590780.2394898,251871.53125,242227.125,7260.47265625,684595.8125,686788.3125,551428.5625,686893.25,686822.3125,0.0
1763590780.2418895,251878.953125,242225.59375,7256.18115234375,684550.875,686839.4375,551597.0625,686922.6875,687197.6875,0.0
1763590780.244544,251870.375,242245.0,7269.77099609375,684493.4375,686794.5625,551695.25,686891.875,687213.6875,0.0
1763590780.2472444,251853.390625,242257.6875,7282.466796875,684426.8125,686664.375,551737.125,686864.5625,687085.125,0.0
1763590780.2495348,251898.09375,242252.953125,7277.63916015625,684423.25,686719.3125,551911.375,686912.6875,687098.0,0.0
1763590780.2520669,251912.671875,242254.5625,7280.94677734375,684385.25,686785.1875,552093.125,686951.3125,687129.6875,0.0
1763590780.2545142,251904.703125,242262.4375,7290.60302734375,684328.5625,686759.1875,552202.9375,686924.8125,687104.5625,0.0
1763590780.254567,251870.734375,242269.765625,7294.35791015625,684243.375,686614.0,552230.875,686866.1875,686966.0625,0.0
1763590780.2571611,251906.765625,242262.515625,7284.43408203125,684225.125,686628.1875,552372.625,686899.625,686943.6875,0.0
1763590780.259368,251928.21875,242260.5625,7280.41064453125,684188.875,686704.75,552563.25,686944.3125,686980.375,0.0
1763590780.2618508,251915.265625,242259.9375,7280.5,684127.8125,686691.5,552680.5,686924.0625,686962.5,0.0
1763590780.2645593,251875.203125,242267.265625,7286.490234375,684033.875,686547.375,552704.3125,686852.5,686762.3125,0.0
1763590780.2646148,251879.671875,242245.796875,7266.462890625,683988.8125,686500.625,552789.75,686879.75,686660.3125,0.0
1763590780.29984,251889.328125,242227.46875,7246.3466796875,683949.625,686570.1875,552966.5625,686915.5625,687041.3125,0.0
1763590780.299915,251893.53125,242237.578125,7250.01220703125,683900.375,686589.625,553112.25,686924.5625,687270.5,0.0
1763590780.302008,251862.6875,242254.5625,7260.2939453125,683815.625,686472.0625,553160.125,686879.0625,687173.3125,0.0
1763590780.3020775,251876.359375,242253.21875,7258.1484375,683781.75,686415.6875,553251.8125,686889.625,687096.5625,0.0
1763590780.3045459,251917.5,242256.171875,7258.3271484375,683767.25,686508.625,553452.8125,686946.5625,687141.625,0.0
1763590780.3095348,251920.796875,242261.984375,7257.5224609375,683723.25,686540.75,553607.6875,686964.875,687157.5625,0.0
1763590780.31173,251886.921875,242270.03125,7260.20458984375,683639.5,686441.875,553666.25,686894.0,687071.0,0.0
1763590780.314546,251882.0,242272.171875,7258.77392578125,683583.1875,686347.8125,553731.25,686864.0625,686965.8125,0.0
1763590780.3167522,251925.0,242270.03125,7252.96240234375,683570.75,686437.6875,553929.25,686927.8125,687007.8125,0.0
1763590780.319152,251929.75,242272.71875,7251.0849609375,683532.3125,686487.3125,554099.9375,686961.0625,687035.0625,0.0
1763590780.3216283,251899.34375,242278.609375,7250.7275390625,683457.375,686419.4375,554180.3125,686903.9375,686976.875,0.0
1763590780.3241413,251885.21875,242286.21875,7252.60498046875,683391.5,686307.0625,554232.0625,686841.0,686861.625,0.0
1763590780.3309495,251927.328125,242273.515625,7241.5185546875,683376.875,686386.25,554422.8125,686908.9375,686895.625,0.0
1763590780.331002,251934.65625,242272.8125,7237.76318359375,683326.9375,686446.0625,554598.0625,686948.5625,686927.8125,0.0
1763590780.3328843,251915.34375,242281.65625,7242.6806640625,683254.5,686403.5,554694.625,686915.0,686882.0,0.0
1763590780.3371136,251875.921875,242278.53125,7236.3330078125,683162.125,686257.0625,554719.1875,686871.0,686634.0,0.0
1763590780.33716,251892.90625,242245.171875,7203.78857421875,683125.6875,686281.625,554860.5625,686911.875,686735.625,0.0
1763590780.3730316,251901.578125,242233.734375,7193.328125,683083.5625,686347.0625,555039.0625,686950.5625,687159.5625,0.0
1763590780.3730824,251895.234375,242242.9375,7199.67626953125,683034.125,686340.3125,555166.5625,686943.625,687298.125,0.0
1763590780.3730905,251863.84375,242258.140625,7209.60009765625,682954.25,686209.5,555207.1875,686874.5,687177.0625,0.0
1763590780.3755536,251910.515625,242257.34375,7207.365234375,682950.0,686245.0625,555370.5,686915.4375,687177.9375,0.0
1763590780.375599,251933.5,242259.484375,7207.63330078125,682914.5625,686341.1875,555578.5,686983.375,687233.9375,0.0
1763590780.378288,251921.875,242263.0625,7210.40478515625,682856.8125,686340.5625,555704.25,686976.0625,687227.8125,0.0
1763590780.3804643,251885.75,242273.515625,7217.37841796875,682768.3125,686211.625,555740.3125,686869.5,687109.9375,0.0
1763590780.3832648,251916.0625,242271.90625,7214.3388671875,682746.25,686198.9375,555862.9375,686851.0,687069.5,0.0
1763590780.3855276,251942.265625,242269.3125,7209.689453125,682720.75,686290.0625,556059.8125,686914.1875,687114.5,0.0
1763590780.388618,251943.421875,242274.765625,7211.03076171875,682675.625,686318.75,556213.625,686933.6875,687131.9375,0.0
1763590780.3909314,251898.625,242279.15625,7207.63330078125,682580.8125,686203.3125,556262.0625,686879.0625,687029.0625,0.0
1763590780.3935716,251904.34375,242272.71875,7199.58642578125,682537.4375,686146.1875,556354.6875,686892.1875,686953.6875,0.0
1763590780.3956864,251938.59375,242271.375,7198.42431640625,682519.75,686242.1875,556558.4375,686954.625,687001.75,0.0
1763590780.3983328,251942.53125,242272.625,7196.27880859375,682474.0,686281.8125,556717.875,686980.125,687022.375,0.0
1763590780.3983848,251906.5,242276.296875,7195.20556640625,682388.25,686192.4375,556780.125,686903.625,686943.25,0.0
1763590780.4006023,251907.125,242283.265625,7198.24560546875,682341.375,686104.4375,556853.875,686828.75,686844.1875,0.0
1763590780.4034173,251949.40625,242277.71875,7193.328125,682332.4375,686200.625,557062.375,686896.3125,686892.9375,0.0
1763590780.4074912,251949.6875,242274.5,7187.78515625,682283.4375,686244.875,557227.5625,686924.375,686914.3125,0.0
1763590780.4075696,251921.25,242280.5,7191.0927734375,682208.25,686175.6875,557305.25,686879.75,686825.5,0.0
1763590780.443019,251882.796875,242269.765625,7177.5029296875,682121.1875,686037.3125,557332.75,686886.9375,686580.875,0.0
1763590780.449254,251899.515625,242240.53125,7147.46240234375,682087.0,686081.1875,557483.75,686934.6875,686791.8125,0.0
1763590780.4493027,251906.3125,242238.109375,7141.5615234375,682046.1875,686141.125,557655.75,686969.8125,687197.375,0.0
1763590780.4520533,251897.5625,242256.71875,7154.61474609375,681987.0,686109.6875,557763.3125,686942.5625,687250.8125,0.0
1763590780.4545245,251873.859375,242268.15625,7164.44970703125,681913.5,685977.125,557802.0,686876.375,687120.375,0.0
1763590780.4567127,251918.75,242256.984375,7153.9892578125,681904.25,686035.0,557977.5,686942.4375,687136.375,0.0
1763590780.4592736,251933.859375,242254.03125,7148.177734375,681866.1875,686116.4375,558171.75,686998.0,687180.5625,0.0
1763590780.4617238,251923.21875,242259.21875,7150.50244140625,681807.0,686101.6875,558289.375,686980.125,687163.5625,0.0
1763590780.4697523,251888.4375,242269.3125,7157.744140625,681718.0625,685965.9375,558323.0,686868.4375,687036.25,0.0
1763590780.4698024,251926.4375,242268.953125,7156.939453125,681704.625,685981.25,558466.5625,686872.375,687017.3125,0.0
1763590780.4717827,251943.328125,242265.65625,7150.85986328125,681672.375,686060.25,558656.75,686926.625,687055.3125,0.0
1763590780.471846,251940.296875,242267.53125,7150.7705078125,681621.5,686067.1875,558791.3125,686927.8125,687056.1875,0.0
1763590780.4769537,251896.9375,242269.9375,7145.9423828125,681524.0625,685937.625,558829.6875,686875.3125,686938.1875,0.0
1763590780.479675,251915.53125,242262.796875,7137.001953125,681494.875,685912.3125,558944.9375,686898.4375,686887.3125,0.0
1763590780.4797466,251940.296875,242260.375,7131.5478515625,681470.3125,685996.0625,559136.6875,686949.1875,686924.5,0.0
1763590780.4822724,251937.96875,242260.734375,7128.50830078125,681420.9375,686012.875,559276.5,686956.125,686928.25,0.0
1763590780.482388,251901.046875,242270.390625,7131.5478515625,681330.125,685901.25,559325.9375,686903.5,686769.75,0.0
1763590780.484296,251893.0,242256.984375,7113.9345703125,681274.75,685817.8125,559390.9375,686909.0,686618.25,0.0
1763590780.4870453,251907.65625,242236.5,7090.06298828125,681239.0625,685888.1875,559564.875,686946.375,686965.625,0.0
1763590780.4959219,251915.171875,242244.734375,7095.427734375,681197.625,685917.3125,559713.75,686961.6875,687255.9375,0.0
1763590780.4960034,251897.203125,242264.125,7111.07373046875,681128.0625,685841.875,559790.6875,686913.0625,687210.9375,0.0
1763590780.4983149,251895.046875,242271.375,7117.51123046875,681077.375,685745.5625,559855.875,686900.0625,687104.5625,0.0
1763590780.4983935,251945.75,242275.125,7120.46142578125,681072.8125,685833.375,560050.9375,686969.1875,687142.8125,0.0
1763590780.5055325,251951.734375,242276.109375,7118.49462890625,681028.6875,685880.1875,560216.75,686997.6875,687164.0625,0.0
1763590780.53722,251928.140625,242282.015625,7121.89208984375,680954.3125,685816.0,560297.8125,686942.125,687106.8125,0.0
1763590780.53727,251918.828125,242296.765625,7132.62060546875,680896.5625,685697.0,560349.5,686845.0625,686985.4375,0.0
1763590780.5407696,251966.84375,242291.9375,7125.82568359375,680888.8125,685771.0625,560539.5,686893.375,687012.0,0.0
1763590780.54082,251971.9375,242287.640625,7117.86865234375,680839.25,685830.875,560717.3125,686934.75,687039.1875,0.0
1763590780.5408297,251951.734375,242293.015625,7117.9580078125,680773.9375,685798.3125,560823.875,686916.375,687009.3125,0.0
1763590780.544898,251915.265625,242299.984375,7120.0146484375,680690.9375,685657.4375,560853.375,686853.5625,686873.0625,0.0
1763590780.5449476,251959.96875,242300.875,7118.94140625,680685.125,685695.375,561013.25,686879.4375,686869.0625,0.0
1763590780.544958,251979.453125,242304.90625,7119.29931640625,680654.5625,685768.375,561200.9375,686929.0625,686903.375,0.0
1763590780.5449655,251966.578125,242304.015625,7111.25244140625,680592.5625,685754.0625,561318.125,686923.875,686865.5625,0.0
1763590780.5468092,251905.609375,242291.578125,7092.47705078125,680474.8125,685591.4375,561324.5625,686906.125,686606.625,0.0
1763590780.5495954,251908.734375,242262.34375,7061.89990234375,680431.375,685557.1875,561417.4375,686908.5625,686713.6875,0.0
1763590780.5532093,251925.0,242253.578125,7051.9755859375,680398.5,685633.0,561600.9375,686952.1875,687139.875,0.0
1763590780.589496,251930.453125,242263.953125,7060.64794921875,680355.5,685648.125,561743.0625,686961.3125,687293.1875,0.0
1763590780.5895476,251902.296875,242281.65625,7073.43359375,680276.0625,685529.75,561791.0,686884.25,687186.875,0.0
1763590780.5972044,251931.984375,242289.4375,7078.43994140625,680258.1875,685501.75,561904.625,686896.5625,687131.0,0.0
1763590780.597254,251961.125,242287.46875,7071.91357421875,680233.375,685586.4375,562098.0,686952.4375,687167.6875,0.0
1763590780.5972626,251960.140625,242285.234375,7066.0126953125,680180.8125,685605.0,562238.75,686961.75,687172.4375,0.0
1763590780.59727,251928.578125,242290.5,7071.1982421875,680099.3125,685512.3125,562303.6875,686896.9375,687092.125,0.0
1763590780.6018353,251938.6875,242292.65625,7074.68505859375,680060.0625,685445.125,562390.5625,686881.75,687009.125,0.0
1763590780.604558,251978.640625,242286.84375,7069.49951171875,680047.125,685537.3125,562589.4375,686949.4375,687052.4375,0.0
1763590780.6072109,251979.984375,242290.0625,7070.8408203125,680003.5,685573.625,562742.625,686973.0,687069.3125,0.0
1763590780.6117976,251949.59375,242297.03125,7072.181640625,679926.25,685496.0,562815.6875,686910.375,687002.6875,0.0
1763590780.6144893,251943.78125,242302.671875,7076.65185546875,679880.0,685398.1875,562881.9375,686829.625,686897.125,0.0
1763590780.6169744,251991.4375,242302.671875,7076.29443359375,679875.875,685481.625,563076.125,686884.1875,686932.375,0.0
1763590780.6195972,251993.125,242297.125,7066.99609375,679830.6875,685534.375,563246.1875,686921.375,686960.25,0.0
1763590780.6218867,251956.5625,242293.375,7055.46240234375,679744.9375,685482.4375,563321.0,686890.5,686880.9375,0.0
1763590780.6270547,251905.421875,242275.9375,7031.94873046875,679647.625,685404.0,563318.875,686898.4375,686615.6875,0.0
1763590780.6296077,251926.34375,242246.515625,7004.0537109375,679616.875,685442.75,563461.5,686940.0625,686808.4375,0.0
1763590780.631703,251933.59375,242247.859375,7004.0537109375,679578.25,685488.1875,563627.1875,686968.8125,687207.25,0.0
1763590780.6345496,251931.984375,242258.859375,7013.6201171875,679530.1875,685481.625,563751.875,686962.6875,687283.4375,0.0
1763590780.636804,251902.734375,242269.046875,7019.431640625,679448.25,685400.0,563791.875,686863.4375,687164.375,0.0
1763590780.6368532,251951.203125,242274.0625,7023.1865234375,679446.8125,685453.1875,563954.3125,686892.1875,687171.0,0.0
1763590780.6395617,251974.890625,242280.765625,7027.2099609375,679417.0,685526.8125,564143.5,686949.0625,687213.0,0.0
1763590780.6434133,251967.46875,242285.671875,7028.55126953125,679361.4375,685525.1875,564267.0625,686945.75,687209.3125,0.0
1763590780.678403,251926.796875,242296.765625,7031.0546875,679269.75,685423.5,564298.3125,686893.375,687087.5625,0.0
1763590780.6784995,251959.25,242294.078125,7027.2099609375,679252.375,685438.0,564426.375,686926.6875,687059.3125,0.0
1763590780.6908524,251981.15625,242290.328125,7022.8291015625,679220.1875,685514.25,564615.4375,686980.0,687098.125,0.0
1763590780.6909015,251978.375,242289.25,7020.59375,679169.75,685530.375,564753.3125,686990.8125,687106.4375,0.0
1763590780.6932588,251940.03125,242297.921875,7027.03125,679080.8125,685434.875,564794.1875,686895.1875,686999.5625,0.0
1763590780.6955502,251959.875,242295.609375,7025.421875,679050.4375,685422.6875,564894.125,686859.5625,686940.125,0.0
1763590780.698254,251989.375,242287.828125,7019.87841796875,679026.8125,685502.9375,565086.0,686920.125,686982.75,0.0
1763590780.6983051,251983.296875,242285.046875,7015.85546875,678974.0625,685522.5,565226.0,686930.375,686989.5625,0.0
1763590780.7032495,251944.765625,242292.296875,7017.017578125,678889.1875,685443.375,565276.1875,686883.8125,686868.8125,0.0
1763590780.7057416,251924.015625,242272.0,6993.68212890625,678817.4375,685404.1875,565321.625,686908.3125,686656.375,0.0
1763590780.7158444,251946.546875,242252.328125,6972.0458984375,678789.3125,685457.0625,565488.8125,686951.0625,686934.3125,0.0
1763590780.715894,251954.78125,242259.21875,6976.33740234375,678752.875,685498.1875,565647.6875,686979.625,687269.0625,0.0
1763590780.7184253,251929.921875,242276.03125,6987.423828125,678678.375,685443.625,565715.375,686924.6875,687232.375,0.0
1763590780.723298,251921.515625,242281.390625,6991.0,678623.875,685402.0,565765.0625,686898.125,687121.5625,0.0
1763590780.727966,251967.46875,242275.9375,6986.7978515625,678623.5,685471.375,565954.9375,686965.1875,687158.9375,0.0
1763590780.730532,251976.5,242280.671875,6986.97705078125,678579.125,685516.9375,566117.9375,686994.25,687179.625,0.0
1763590780.7305512,251961.390625,242293.28125,6993.95068359375,678511.0,685471.625,566201.75,686948.0625,687130.5625,0.0
1763590780.7329884,251941.984375,242305.34375,7002.71240234375,678440.625,685408.875,566234.4375,686876.375,687000.9375,0.0
1763590780.7379239,251985.359375,242299.0,6994.75537109375,678433.0625,685464.75,566399.125,686930.1875,687012.125,0.0
1763590780.7379398,251995.1875,242296.140625,6987.6025390625,678395.0625,685521.75,566577.5,686970.875,687042.875,0.0
1763590780.7404623,251980.078125,242298.28125,6983.48974609375,678339.375,685504.6875,566691.5625,686952.3125,687026.125,0.0
1763590780.7430766,251947.890625,242309.28125,6991.08935546875,678259.5,685416.8125,566727.625,686848.75,686902.9375,0.0
1763590780.745797,251991.078125,242303.921875,6984.92041015625,678250.8125,685468.25,566887.5,686876.8125,686907.25,0.0
1763590780.7458465,252001.890625,242297.390625,6975.89013671875,678207.9375,685538.125,567071.9375,686929.6875,686944.0,0.0
1763590780.7480035,251988.484375,242300.96875,6976.51611328125,678148.0,685529.0,567187.0625,686919.9375,686926.0,0.0
1763590780.751119,251933.5,242294.703125,6967.84375,678042.8125,685426.8125,567188.3125,686889.1875,686675.9375,0.0
1763590780.7557836,251927.953125,242255.453125,6926.98486328125,677989.0625,685413.9375,567254.9375,686931.4375,686652.0,0.0
1763590780.7558303,251949.046875,242247.234375,6917.32861328125,677958.5625,685477.4375,567440.875,686977.125,687073.8125,0.0
1763590780.7579887,251957.8125,242257.6875,6925.912109375,677914.875,685498.625,567583.0625,686990.375,687281.75,0.0
1763590780.7619193,251926.34375,242275.75,6941.20068359375,677834.75,685423.625,567615.1875,686903.8125,687172.5625,0.0
1763590780.76551,251948.703125,242276.734375,6940.39599609375,677811.25,685424.5625,567708.75,686904.1875,687108.0625,0.0
1763590780.7655473,251987.40625,242275.578125,6938.51806640625,677796.375,685510.9375,567915.5,686978.6875,687164.5625,0.0
1763590780.8056235,251985.0,242279.234375,6939.14404296875,677752.3125,685531.25,568054.0625,686989.1875,687170.5,0.0
1763590780.8095336,251957.90625,242294.171875,6948.80029296875,677674.875,685446.125,568108.875,686911.0,687085.875,0.0
1763590780.8096073,251972.03125,242305.265625,6958.4560546875,677640.9375,685401.875,568195.125,686858.6875,687008.0625,0.0
1763590780.8096273,252015.9375,242304.546875,6957.025390625,677630.625,685492.4375,568394.0,686926.875,687056.25,0.0
1763590780.8309803,252017.09375,242305.078125,6951.6611328125,677587.375,685538.5,568553.8125,686959.0,687081.125,0.0
1763590780.831031,251986.25,242309.546875,6951.57177734375,677510.375,685481.25,568626.6875,686917.5,687020.125,0.0
1763590780.8310409,251970.328125,242310.265625,6946.8330078125,677446.4375,685414.125,568668.125,686909.3125,686902.5,0.0
1763590780.8310468,252018.96875,242308.65625,6940.30615234375,677452.25,685495.75,568862.75,686985.875,686947.0,0.0
1763590780.8310535,252022.90625,242310.71875,6936.55126953125,677414.6875,685552.4375,569033.0625,687025.4375,686976.5,0.0
1763590780.8333533,252000.109375,242317.953125,6941.021484375,677350.8125,685503.4375,569117.375,686978.6875,686924.375,0.0
1763590780.8334029,251964.34375,242315.359375,6937.17724609375,677266.5,685410.9375,569132.0625,686894.375,686682.1875,0.0
1763590780.8357701,251982.9375,242282.640625,6902.93408203125,677233.5625,685453.625,569264.0,686940.875,686745.6875,0.0
1763590780.837917,251991.609375,242268.25,6887.82470703125,677187.6875,685526.9375,569450.0625,686999.0625,687177.9375,0.0
1763590780.837942,251985.984375,242285.59375,6899.98388671875,677136.625,685528.8125,569578.875,687000.0625,687316.6875,0.0
1763590780.840537,251962.5625,242307.40625,6918.22265625,677063.0625,685409.9375,569624.375,686907.125,687206.5625,0.0
1763590780.8454647,252007.96875,242310.53125,6921.2626953125,677057.0625,685451.9375,569787.5,686935.3125,687211.5,0.0
1763590780.8480463,252026.296875,242306.421875,6918.58056640625,677027.5,685540.3125,569979.875,686999.5,687259.75,0.0
1763590780.850886,252021.828125,242309.109375,6921.888671875,676979.1875,685547.5,570108.875,687000.8125,687262.875,0.0
1763590780.8535254,251981.421875,242318.671875,6925.73291015625,676888.1875,685439.5,570147.0625,686910.0625,687150.25,0.0
1763590780.8555567,252011.375,242318.40625,6924.4814453125,676866.125,685450.9375,570273.375,686926.625,687120.4375,0.0
1763590780.8556063,252040.15625,242320.640625,6923.94482421875,676839.3125,685542.625,570470.75,686995.625,687173.125,0.0
1763590780.8585749,252039.4375,242325.203125,6926.98486328125,676791.5625,685560.5,570605.375,687003.9375,687180.8125,0.0
1763590780.8609955,252002.25,242329.21875,6926.18017578125,676708.125,685460.875,570653.9375,686917.25,687084.25,0.0
1763590780.8806477,252017.265625,242326.53125,6921.083984375,676677.875,685438.6875,570761.3125,686885.9375,687030.4375,0.0
1763590780.8807073,252044.359375,242319.828125,6911.517578125,676657.875,685535.5625,570962.0,686957.5,687083.8125,0.0
1763590780.8831744,252040.515625,242318.9375,6907.494140625,676605.375,685567.9375,571107.5,686978.75,687099.125,0.0
1763590780.8857908,252010.125,242328.234375,6914.8251953125,676524.375,685484.125,571167.5625,686912.3125,687023.25,0.0
1763590780.8882344,252011.109375,242330.03125,6912.94775390625,676478.8125,685424.6875,571240.875,686891.75,686936.0,0.0
1763590780.890659,252043.734375,242316.875,6898.73193359375,676464.5,685518.8125,571437.375,686970.875,686983.875,0.0
1763590780.893604,252047.765625,242317.421875,6899.447265625,676423.5625,685571.75,571601.875,687008.375,687013.625,0.0
1763590780.8955553,252016.921875,242325.90625,6902.666015625,676345.25,685505.5,571672.0625,686950.0625,686952.3125,0.0
1763590780.8981378,251999.65625,242331.71875,6903.828125,676284.8125,685413.9375,571722.625,686864.5,686841.5,0.0
1763590780.898183,252046.234375,242327.4375,6898.82177734375,676280.25,685500.125,571915.5625,686929.0625,686884.0625,0.0
1763590780.9369757,252050.265625,242324.21875,6895.42431640625,676237.6875,685566.375,572091.9375,686979.4375,686921.1875,0.0
1763590780.9396884,252029.609375,242326.8125,6894.52978515625,676171.9375,685544.5,572203.0,686967.9375,686889.6875,0.0
1763590780.939763,251984.375,242319.921875,6883.0859375,676074.9375,685427.875,572233.5625,686917.75,686654.3125,0.0
1763590780.941929,252002.609375,242292.109375,6854.744140625,676039.8125,685469.5625,572376.1875,686955.875,686800.1875,0.0
1763590780.9471605,252012.53125,242288.71875,6848.03857421875,676000.9375,685547.1875,572557.9375,687014.1875,687230.625,0.0
1763590780.9493227,252004.125,242297.75,6855.01220703125,675951.75,685543.5,572680.125,687013.1875,687335.1875,0.0
1763590780.9519267,251965.0625,242304.640625,6857.78369140625,675871.75,685420.1875,572720.8125,686917.625,687220.125,0.0
1763590780.9543664,252008.6875,242303.734375,6855.99560546875,675868.25,685469.125,572887.375,686954.1875,687231.3125,0.0
1763590780.9570255,252030.953125,242305.703125,6855.81689453125,675844.125,685582.5,573103.3125,687045.1875,687303.9375,0.0
1763590780.9592853,252014.5,242304.359375,6850.63134765625,675788.9375,685591.5,573233.0625,687050.75,687307.9375,0.0
1763590780.9618177,251974.265625,242315.453125,6856.44287109375,675703.8125,685472.25,573276.3125,686958.1875,687200.6875,0.0
1763590780.961877,252004.671875,242315.984375,6855.63818359375,675690.5,685465.25,573402.5,686949.9375,687166.3125,0.0
1763590780.9645653,252028.265625,242310.890625,6848.9326171875,675668.3125,685570.875,573611.125,687029.5625,687227.125,0.0
1763590780.9670424,252023.625,242317.15625,6852.8662109375,675621.375,685599.375,573757.4375,687050.25,687243.6875,0.0
1763590780.9671152,251990.8125,242334.5,6865.6513671875,675543.75,685494.875,573808.3125,686967.375,687151.9375,0.0
1763590780.9698374,252010.390625,242338.78125,6868.15478515625,675524.625,685463.125,573919.6875,686941.75,687101.25,0.0
1763590780.971845,252039.71875,242333.515625,6860.287109375,675506.25,685570.75,574129.6875,687021.875,687161.125,0.0
1763590780.976802,252033.28125,242333.25,6856.5322265625,675450.8125,685599.9375,574273.625,687038.375,687172.25,0.0
1763590780.9768507,251998.859375,242341.5625,6860.9130859375,675371.5625,685512.3125,574330.0625,686962.5,687091.25,0.0
1763590780.9796484,251999.296875,242344.515625,6862.5224609375,675329.0,685438.875,574402.25,686894.875,686998.875,0.0
1763590781.01333,252039.09375,242340.9375,6856.80029296875,675319.0,685536.0625,574603.8125,686965.875,687048.75,0.0
1763590781.0133803,252041.59375,242345.84375,6856.7109375,675275.0,685585.625,574766.0,686999.0625,687073.375,0.0
1763590781.0185132,252010.921875,242352.28125,6860.4658203125,675200.75,685515.4375,574834.4375,686936.75,687008.375,0.0
1763590781.0185645,251996.625,242358.640625,6866.36669921875,675137.625,685424.25,574873.8125,686887.75,686885.3125,0.0
1763590781.0222993,252040.25,242349.96875,6858.1416015625,675134.125,685498.875,575049.0625,686962.5625,686910.6875,0.0
1763590781.0223477,252047.40625,242351.296875,6857.42626953125,675092.375,685546.625,575208.6875,686992.0,686930.0,0.0
1763590781.0223572,252027.375,242354.703125,6857.60498046875,675025.3125,685517.1875,575299.4375,686967.5,686867.6875,0.0
1763590781.024604,251972.03125,242339.0625,6838.65087890625,674924.875,685424.25,575290.1875,686926.875,686598.0625,0.0
1763590781.024675,251990.625,242312.953125,6810.39794921875,674899.25,685439.8125,575410.9375,686944.9375,686759.4375,0.0
1763590781.027036,252002.875,242308.921875,6799.40087890625,674866.25,685504.625,575587.75,686990.8125,687193.0625,0.0
1763590781.0294387,251994.03125,242320.09375,6805.123046875,674815.1875,685501.6875,575705.3125,686982.625,687329.6875,0.0
1763590781.0294936,251953.25,242329.3125,6810.755859375,674730.4375,685424.5,575722.375,686919.375,687192.875,0.0
1763590781.032159,251992.953125,242327.609375,6810.1298828125,674721.5,685457.25,575851.875,686951.5,687167.375,0.0
1763590781.0417383,252017.8125,242328.234375,6811.38134765625,674698.1875,685526.8125,576036.375,687002.875,687206.3125,0.0
1763590781.048427,252014.140625,242331.453125,6815.22607421875,674652.5625,685536.0,576164.0,687004.4375,687208.375,0.0
1763590781.0484912,251979.90625,242345.40625,6830.60400390625,674574.4375,685443.8125,576197.9375,686901.5,687093.4375,0.0
1763590781.0880544,252003.765625,242342.625,6829.44189453125,674555.375,685439.1875,576300.9375,686871.625,687039.25,0.0
1763590781.088101,252026.296875,242332.625,6816.74609375,674527.375,685516.25,576488.875,686929.9375,687080.0625,0.0
1763590781.0881095,252027.46875,242341.296875,6820.76904296875,674486.75,685534.125,576623.6875,686938.3125,687085.75,0.0
1763590781.088116,251990.359375,242350.59375,6827.2958984375,674401.9375,685458.5,576656.25,686904.25,686977.5625,0.0
1763590781.0905125,251989.375,242337.984375,6814.689453125,674356.25,685427.75,576709.125,686922.8125,686874.3125,0.0
1763590781.0949056,252029.703125,242334.765625,6809.146484375,674348.125,685505.3125,576904.25,686983.6875,686921.5625,0.0
1763590781.0949793,252031.484375,242337.0,6808.1630859375,674301.4375,685533.875,577046.625,687000.9375,686933.875,0.0
1763590781.095,251990.8125,242339.140625,6806.1064453125,674214.125,685464.8125,577090.6875,686952.4375,686784.5625,0.0
1763590781.0972295,251954.515625,242312.5,6776.5126953125,674132.3125,685419.0625,577102.875,686926.8125,686587.25,0.0
1763590781.099582,251976.5,242288.265625,6749.86962890625,674104.3125,685465.25,577259.125,686960.125,686894.25,0.0
1763590781.1017768,251989.015625,242297.296875,6752.73046875,674067.5,685514.4375,577422.3125,687000.3125,687279.8125,0.0
1763590781.104592,251971.234375,242314.203125,6762.5654296875,674006.9375,685480.5,577509.3125,686962.6875,687293.0,0.0
1763590781.1068988,251950.484375,242325.5625,6770.5224609375,673944.3125,685427.4375,577537.4375,686909.625,687163.0,0.0
1763590781.109233,252002.25,242326.453125,6771.505859375,673950.125,685491.625,577711.375,686984.5,687188.25,0.0
1763590781.1117637,252015.75,242328.953125,6767.84033203125,673916.6875,685553.0,577889.625,687032.125,687224.4375,0.0
1763590781.1145146,252003.234375,242333.515625,6764.44287109375,673854.0625,685527.5,577994.75,687009.875,687200.8125,0.0
1763590781.116788,251978.734375,242346.203125,6768.01904296875,673780.0625,685425.5,578035.875,686913.1875,687081.5625,0.0
1763590781.1168349,252023.796875,242347.640625,6766.1416015625,673780.875,685477.8125,578198.625,686946.3125,687090.625,0.0
1763590781.1196096,252037.484375,242343.796875,6760.59814453125,673743.375,685549.5625,578379.875,687001.375,687128.0625,0.0
1763590781.1533992,252021.828125,242344.515625,6757.7373046875,673681.9375,685541.625,578495.25,686992.6875,687117.4375,0.0
1763590781.1534488,251978.921875,242352.640625,6764.44287109375,673594.8125,685441.3125,578511.75,686913.9375,686983.5,0.0
1763590781.1558447,252015.9375,242346.5625,6760.330078125,673591.6875,685476.5625,578645.1875,686963.8125,686965.1875,0.0
1763590781.1558938,252040.34375,242342.28125,6755.94921875,673562.3125,685560.0625,578840.375,687030.1875,687016.3125,0.0
1763590781.1580956,252044.90625,242351.125,6765.3369140625,673513.375,685567.625,578966.1875,687033.5,687018.0625,0.0
1763590781.1608732,252015.75,242366.5,6777.49609375,673435.5625,685458.125,578991.375,686925.125,686898.75,0.0
1763590781.1634583,252041.6875,242360.6875,6771.05908203125,673414.0,685447.5,579097.9375,686898.0,686848.125,0.0
1763590781.1658077,252072.34375,242357.109375,6764.353515625,673390.25,685532.875,579290.75,686962.8125,686894.5625,0.0
1763590781.1682525,252078.15625,242364.453125,6770.1650390625,673350.6875,685559.125,579431.125,686980.5625,686904.75,0.0
1763590781.1705723,252043.203125,242374.375,6778.03271484375,673262.75,685484.9375,579468.625,686942.75,686714.5625,0.0
1763590781.1733017,252027.109375,242351.578125,6754.9658203125,673197.9375,685438.4375,579493.875,686936.625,686596.625,0.0
1763590781.179251,252055.890625,242331.71875,6737.44189453125,673179.25,685500.875,579671.3125,686987.3125,686967.6875,0.0
1763590781.182159,252065.375,242338.421875,6742.1806640625,673140.1875,685536.375,579821.375,687014.4375,687307.125,0.0
1763590781.1822152,252048.203125,242354.078125,6753.7138671875,673073.3125,685475.5625,579885.1875,686957.9375,687270.25,0.0
1763590781.1846535,252046.6875,242361.234375,6755.41259765625,673023.8125,685432.125,579932.125,686927.1875,687157.8125,0.0
1763590781.1882133,252097.375,242361.046875,6752.5517578125,673026.0,685514.25,580126.4375,687004.6875,687203.0,0.0
1763590781.188286,252105.421875,242363.46875,6749.69091796875,672984.5,685564.3125,580290.0,687040.625,687228.375,0.0
1763590781.2220433,252087.359375,242374.640625,6758.1845703125,672918.3125,685514.25,580362.0,686985.1875,687169.8125,0.0
1763590781.2221029,252072.34375,242383.40625,6765.515625,672854.4375,685431.5625,580394.875,686883.5625,687042.9375,0.0
1763590781.2246804,252118.5625,242375.890625,6760.06201171875,672851.5625,685494.9375,580573.0,686934.5,687070.3125,0.0
1763590781.2247295,252128.5,242380.890625,6761.3134765625,672817.5625,685549.125,580735.75,686973.6875,687093.0,0.0
1763590781.2270076,252114.71875,242387.875,6765.42626953125,672761.25,685516.5625,580828.375,686945.875,687059.5,0.0
1763590781.2295942,252081.28125,242393.59375,6766.67822265625,672683.375,685427.4375,580847.0625,686898.5625,686922.6875,0.0
1763590781.2321985,252118.484375,242387.421875,6760.59814453125,672677.5,685474.9375,580989.0,686950.75,686914.8125,0.0
1763590781.2343569,252133.40625,242387.25,6756.84326171875,672646.1875,685540.1875,581167.8125,687002.1875,686952.375,0.0
1763590781.2370267,252128.21875,242394.21875,6759.7041015625,672600.0625,685541.6875,581290.3125,687003.9375,686946.125,0.0
1763590781.2445593,252073.859375,242391.984375,6753.89306640625,672504.375,685447.125,581296.3125,686947.0,686707.375,0.0
1763590781.2469945,252078.15625,242363.828125,6725.7294921875,672466.0625,685454.75,581376.5625,686962.0625,686696.125,0.0
1763590781.2571938,252096.3125,242353.453125,6714.01708984375,672435.5625,685519.375,581558.6875,687016.375,687118.125,0.0
1763590781.259737,252099.609375,242363.109375,6721.43798828125,672396.375,685532.625,581689.8125,687024.5,687319.5625,0.0
1763590781.2598112,252072.171875,242383.671875,6735.47509765625,672318.25,685455.0,581731.5625,686933.0625,687218.5625,0.0
1763590781.2618873,252098.546875,242386.0,6737.7099609375,672299.8125,685460.375,581832.1875,686905.25,687163.125,0.0
1763590781.2619588,252128.5,242381.25,6730.02099609375,672278.125,685538.0625,582022.1875,686971.6875,687207.625,0.0
1763590781.2646017,252127.15625,242386.703125,6728.5908203125,672232.125,685557.875,582158.1875,686984.125,687213.6875,0.0
1763590781.26699,252091.84375,242395.203125,6733.06103515625,672150.875,685474.375,582200.625,686933.3125,687116.6875,0.0
1763590781.2692568,252091.03125,242389.125,6724.29931640625,672106.4375,685436.5,582270.0625,686932.875,687029.5625,0.0
1763590781.2718835,252127.515625,242388.9375,6721.70654296875,672093.625,685510.5,582454.1875,686989.6875,687066.8125,0.0
1763590781.2719305,252126.703125,242384.390625,6716.87841796875,672047.1875,685541.8125,582599.3125,687011.5625,687077.5625,0.0
1763590781.2743845,252096.21875,242392.078125,6721.3486328125,671972.4375,685485.625,582667.625,686957.5,687012.125,0.0
1763590781.309327,252088.34375,242400.03125,6726.802734375,671923.25,685435.6875,582711.25,686911.4375,686896.9375,0.0
1763590781.3093708,252130.90625,242390.28125,6718.9345703125,671922.375,685512.6875,582899.4375,686987.25,686937.8125,0.0
1763590781.3135266,252124.46875,242383.046875,6709.8154296875,671870.5625,685548.0625,583047.1875,687010.5,686948.0,0.0
1763590781.3135998,252099.96875,242384.828125,6709.994140625,671799.6875,685493.6875,583116.0625,686968.1875,686858.75,0.0
1763590781.3136213,252060.015625,242373.03125,6694.794921875,671713.375,685430.9375,583129.25,686948.0625,686619.3125,0.0
1763590781.3319101,252075.921875,242343.25,6664.93310546875,671688.375,685463.125,583260.5625,686980.8125,686832.9375,0.0
1763590781.3319802,252078.421875,242334.3125,6654.025390625,671645.875,685504.4375,583415.4375,687011.1875,687225.875,0.0
1763590781.3320017,252072.796875,242343.96875,6655.9921875,671591.5625,685503.25,583533.1875,687008.25,687300.0,0.0
1763590781.3320222,252039.984375,242359.078125,6660.373046875,671513.5,685438.1875,583554.875,686942.25,687168.0,0.0
1763590781.3346949,252083.4375,242357.46875,6658.85302734375,671513.125,685478.9375,583696.8125,686985.4375,687159.5625,0.0
1763590781.3347683,252102.03125,242359.34375,6661.177734375,671489.1875,685547.875,583880.0,687042.4375,687199.4375,0.0
1763590781.337566,252092.828125,242362.75,6660.5517578125,671441.875,685541.375,583994.4375,687035.375,687187.8125,0.0
1763590781.3394425,252058.9375,242378.21875,6669.04541015625,671362.6875,685452.8125,584027.6875,686937.625,687070.5625,0.0
1763590781.3416631,252089.0625,242379.203125,6667.16796875,671347.375,685464.375,584146.3125,686929.9375,687034.8125,0.0
1763590781.344854,252113.296875,242376.96875,6661.8037109375,671319.8125,685542.0,584334.375,686992.25,687076.3125,0.0
1763590781.3466601,252107.484375,242379.375,6656.52880859375,671270.0625,685548.9375,584460.4375,686994.875,687073.625,0.0
1763590781.3497884,252068.765625,242389.578125,6660.1943359375,671181.25,685465.0,584491.375,686927.5,686960.25,0.0
1763590781.3543332,252079.40625,242383.046875,6656.349609375,671149.6875,685456.125,584568.875,686938.9375,686882.9375,0.0
1763590781.3569016,252113.46875,242381.53125,6656.439453125,671139.25,685535.4375,584760.9375,687006.9375,686930.0,0.0
1763590781.3609903,252107.296875,242379.46875,6653.7568359375,671095.125,685551.625,584890.125,687016.125,686930.1875,0.0
1763590781.3610644,252069.484375,242382.6875,6654.65087890625,671019.0625,685484.0625,584937.9375,686963.625,686768.125,0.0
1763590781.366802,252037.65625,242353.546875,6626.041015625,670943.5,685449.4375,584953.0625,686942.375,686614.875,0.0
1763590781.3668487,252064.921875,242329.578125,6602.07958984375,670922.75,685517.1875,585126.125,687001.125,686986.1875,0.0
1763590781.3706448,252072.078125,242336.640625,6604.31494140625,670886.6875,685554.25,585278.75,687032.375,687300.4375,0.0
1763590781.4047801,252050.625,242351.296875,6612.6298828125,670821.75,685496.8125,585348.5,686975.0,687261.4375,0.0
1763590781.4048278,252046.859375,242366.328125,6625.32568359375,670776.4375,685439.0,585392.125,686887.75,687146.375,0.0
1763590781.407382,252097.5625,242365.4375,6621.5703125,670782.5,685519.0,585582.375,686955.25,687190.3125,0.0
1763590781.407452,252104.4375,242375.0,6622.375,670747.125,685561.8125,585737.25,686985.4375,687205.6875,0.0
1763590781.4091587,252084.421875,242384.296875,6624.9677734375,670690.5625,685522.125,585821.5625,686954.625,687162.5,0.0
1763590781.4121752,252056.078125,242394.21875,6630.15380859375,670617.1875,685447.375,585845.625,686922.6875,687030.5,0.0
1763590781.4144197,252098.984375,242384.203125,6623.3583984375,670616.125,685502.0,586005.1875,686976.1875,687041.8125,0.0
1763590781.420549,252115.4375,242384.203125,6621.8388671875,670587.875,685567.5625,586183.125,687027.6875,687079.875,0.0
1763590781.4232476,252101.578125,242391.09375,6625.95166015625,670532.9375,685545.75,586281.75,687004.0625,687054.3125,0.0
1763590781.4281635,252061.625,242401.8125,6629.88525390625,670451.3125,685453.5,586289.0625,686894.4375,686909.4375,0.0
1763590781.4311228,252093.359375,242391.625,6615.93798828125,670441.4375,685488.875,586416.9375,686949.25,686890.4375,0.0
1763590781.4346128,252106.765625,242388.765625,6608.427734375,670409.375,685553.8125,586594.375,687005.125,686927.3125,0.0
1763590781.434662,252101.765625,242393.421875,6610.6630859375,670359.0625,685542.3125,586701.5625,686991.875,686898.75,0.0
1763590781.4346704,252048.828125,242382.59375,6598.056640625,670264.1875,685459.0,586708.3125,686958.75,686653.3125,0.0
1763590781.4370944,252041.859375,242346.921875,6563.09814453125,670214.75,685444.5,586764.5,686973.375,686681.0,0.0
1763590781.4421349,252058.046875,242333.609375,6548.435546875,670179.1875,685490.125,586920.5625,687006.3125,687084.3125,0.0
1763590781.4421864,252072.34375,242345.046875,6556.03515625,670146.875,685519.5625,587063.0625,687029.5625,687332.6875,0.0
1763590781.4445684,252043.296875,242363.828125,6568.90966796875,670069.3125,685457.0625,587103.1875,686958.0,687242.25,0.0
1763590781.4481912,252051.96875,242359.890625,6563.0087890625,670037.1875,685447.3125,587178.0,686966.3125,687165.0,0.0
1763590781.479642,252087.09375,242357.390625,6557.197265625,670027.625,685516.875,587361.25,687028.625,687205.5,0.0
1763590781.479686,252082.53125,242359.265625,6555.58837890625,669990.0625,685530.0,587486.5,687032.5,687203.3125,0.0
1763590781.4821556,252046.15625,242366.40625,6559.96923828125,669913.3125,685459.0,587517.25,686953.4375,687104.375,0.0
1763590781.4843173,252053.65625,242366.140625,6561.0419921875,669874.75,685448.8125,587581.0,686943.5,687016.1875,0.0
1763590781.4871373,252095.40625,242365.4375,6556.03515625,669869.9375,685525.4375,587771.0625,687015.4375,687063.625,0.0
1763590781.4896383,252094.875,242368.734375,6554.51513671875,669826.3125,685560.75,587917.8125,687040.25,687079.625,0.0
1763590781.4917731,252067.421875,242377.40625,6559.0751953125,669759.25,685503.1875,587976.4375,686974.9375,687010.5,0.0
1763590781.4945545,252053.578125,242378.03125,6556.03515625,669700.5,685462.6875,588013.375,686884.8125,686894.25,0.0
1763590781.4975832,252101.21875,242375.171875,6551.38623046875,669696.5625,685528.75,588191.0,686940.5625,686927.25,0.0
1763590781.4995117,252107.21875,242378.21875,6549.32958984375,669650.5,685575.6875,588347.375,686977.25,686949.9375,0.0
1763590781.5045977,252086.921875,242385.640625,6551.11767578125,669584.0,685540.125,588427.3125,686958.8125,686875.0625,0.0
1763590781.5070417,252032.5625,242368.46875,6532.7001953125,669490.1875,685454.1875,588412.5625,686952.0,686614.0,0.0
1763590781.5070915,252048.65625,242333.6875,6499.8876953125,669463.1875,685473.6875,588527.0625,686977.125,686816.75,0.0
1763590781.5093312,252067.703125,242334.5,6498.81494140625,669432.625,685541.25,588705.5625,687033.625,687242.25,0.0
1763590781.511751,252063.5,242349.15625,6512.40478515625,669387.5625,685533.125,588815.0625,687022.125,687320.1875,0.0
1763590781.5145595,252034.96875,242366.765625,6527.24609375,669317.125,685447.375,588833.375,686930.1875,687187.3125,0.0
1763590781.518711,252076.1875,242366.140625,6525.4580078125,669316.125,685485.375,588972.875,686973.6875,687178.6875,0.0
1763590781.5187829,252096.75,242365.15625,6520.54052734375,669291.8125,685564.0625,589160.8125,687037.6875,687225.0625,0.0
1763590781.5531163,252086.203125,242364.09375,6516.78564453125,669236.5625,685567.1875,589278.625,687037.3125,687221.9375,0.0
1763590781.5570192,252042.3125,242371.78125,6521.61328125,669144.3125,685466.625,589290.5625,686921.1875,687089.25,0.0
1763590781.5570707,252075.65625,242373.75,6521.16650390625,669133.75,685473.875,589400.875,686907.375,687048.25,0.0
1763590781.557082,252104.4375,242370.171875,6512.94091796875,669115.9375,685558.0625,589595.125,686979.8125,687098.3125,0.0
1763590781.5594823,252103.015625,242376.78125,6514.55029296875,669069.1875,685561.1875,589713.375,686977.5625,687090.25,0.0
1763590781.583485,252069.125,242388.859375,6524.2958984375,668989.875,685477.1875,589741.25,686926.1875,686980.375,0.0
1763590781.5835583,252079.046875,242385.640625,6522.6865234375,668954.75,685461.625,589806.6875,686948.5625,686894.5625,0.0
1763590781.5933957,252119.015625,242380.1875,6518.484375,668946.0625,685539.5625,589994.8125,687014.1875,686941.1875,0.0
1763590781.5960028,252120.265625,242387.15625,6520.98779296875,668902.0,685562.5625,590129.5625,687029.4375,686947.3125,0.0
1763590781.596048,252085.125,242394.21875,6522.77587890625,668820.375,685487.625,590165.9375,686970.0625,686781.625,0.0
1763590781.5983455,252050.0,242368.734375,6493.4501953125,668746.0625,685443.8125,590170.6875,686958.875,686615.875,0.0
1763590781.6009,252072.078125,242343.96875,6468.95263671875,668725.625,685498.625,590327.75,687008.1875,686964.625,0.0
1763590781.6056724,252085.125,242350.953125,6475.21142578125,668693.6875,685544.5625,590485.1875,687045.5625,687314.75,0.0
1763590781.605731,252075.296875,242372.140625,6491.75146484375,668634.6875,685504.4375,590565.6875,687001.8125,687303.3125,0.0
1763590781.6086016,252065.375,242383.578125,6501.0498046875,668583.5625,685448.9375,590602.75,686909.1875,687183.125,0.0
1763590781.6109998,252115.984375,242381.25,6500.423828125,668589.375,685520.5,590782.125,686967.875,687216.75,0.0
1763590781.6158917,252122.953125,242378.484375,6497.38427734375,668552.875,685572.3125,590942.25,687007.125,687241.0625,0.0
1763590781.6180432,252103.90625,242383.21875,6498.72509765625,668487.9375,685539.0625,591029.125,686976.9375,687204.75,0.0
1763590781.620872,252074.84375,242390.203125,6503.28515625,668414.125,685461.3125,591048.1875,686935.3125,687072.75,0.0
1763590781.6233,252114.453125,242381.34375,6496.40087890625,668415.875,685507.8125,591195.5625,686995.9375,687075.5625,0.0
1763590781.6259844,252128.671875,242381.53125,6493.98681640625,668390.9375,685576.6875,591371.6875,687048.375,687114.625,0.0
1763590781.6284275,252112.578125,242389.578125,6493.98681640625,668340.5,685562.125,591475.1875,687033.125,687097.0625,0.0
1763590781.6284752,252076.8125,242400.125,6499.17236328125,668256.6875,685463.5625,591492.75,686920.9375,686966.75,0.0
1763590781.6319249,252119.46875,242393.765625,6495.5068359375,668251.3125,685499.0625,591631.3125,686936.9375,686956.875,0.0
1763590781.6319747,252139.671875,242393.421875,6495.77490234375,668226.4375,685576.5625,591814.875,686999.9375,686999.875,0.0
1763590781.6319842,252134.125,242399.765625,6498.099609375,668181.1875,685579.5625,591934.0625,687001.4375,686997.5,0.0
1763590781.6342869,252084.234375,242401.546875,6493.98681640625,668089.3125,685479.75,591940.5625,686946.8125,686784.125,0.0
1763590781.6370358,252083.703125,242371.515625,6462.60498046875,668046.125,685466.875,592007.25,686992.875,686703.8125,0.0
1763590781.6394846,252106.671875,242360.6875,6450.62451171875,668020.8125,685539.5,592188.5625,687049.9375,687111.5,0.0
1763590781.645766,252111.5,242369.90625,6459.56494140625,667986.375,685557.625,592319.4375,687062.375,687347.8125,0.0
1763590781.6458163,252082.8125,242380.625,6466.7177734375,667913.3125,685485.1875,592363.5625,686981.1875,687264.5625,0.0
1763590781.6520753,252100.78125,242387.515625,6467.16455078125,667888.0625,685469.1875,592444.0,686935.1875,687191.1875,0.0
1763590781.65218,252140.5625,242391.453125,6464.482421875,667879.375,685548.6875,592631.5625,687000.8125,687235.375,0.0
1763590781.6609013,252145.65625,242392.609375,6458.58154296875,667838.4375,685581.5625,592776.625,687024.6875,687249.0,0.0
1763590781.6719644,252111.5,242399.859375,6456.8828125,667760.75,685510.3125,592832.1875,686967.5625,687172.5,0.0
1763590781.6720312,252100.15625,242398.78125,6449.283203125,667708.0,685452.1875,592877.1875,686945.375,687061.625,0.0
1763590781.6720407,252140.03125,242389.75,6439.80615234375,667707.0625,685533.0625,593061.625,687019.4375,687104.25,0.0
1763590781.674692,252142.265625,242389.578125,6435.0673828125,667671.25,685586.0,593220.75,687059.75,687132.25,0.0
1763590781.6747644,252115.703125,242397.796875,6435.8720703125,667599.1875,685532.125,593292.125,687008.0625,687074.625,0.0
1763590781.6768975,252100.953125,242406.46875,6441.5048828125,667536.5,685461.25,593328.0625,686914.1875,686952.625,0.0
1763590781.7120485,252145.484375,242400.65625,6435.96142578125,667539.4375,685534.5625,593508.0625,686973.5625,686985.0,0.0
1763590781.7143059,252147.1875,242397.609375,6429.0771484375,667501.875,685595.25,593676.375,687023.0,687015.875,0.0
1763590781.71435,252127.15625,242403.875,6430.150390625,667436.625,685561.0,593764.1875,686992.8125,686974.5625,0.0
1763590781.7170503,252090.671875,242403.875,6427.55712890625,667352.375,685468.3125,593769.0,686941.0,686728.9375,0.0
1763590781.7192886,252105.34375,242373.828125,6395.28125,667319.875,685495.6875,593888.125,686995.375,686772.375,0.0
1763590781.7220397,252111.0625,242364.265625,6381.333984375,667278.125,685551.8125,594051.375,687037.9375,687185.5625,0.0
1763590781.7245727,252115.796875,242378.125,6392.15234375,667240.375,685559.4375,594175.375,687047.875,687365.25,0.0
1763590781.7268531,252084.859375,242394.484375,6404.84814453125,667168.875,685468.9375,594213.1875,686960.0,687256.8125,0.0
1763590781.7296803,252123.3125,242395.65625,6404.57958984375,667165.8125,685503.4375,594346.4375,686971.625,687237.75,0.0
1763590781.7318027,252149.421875,242394.484375,6400.02001953125,667148.125,685603.5,594553.125,687060.9375,687301.25,0.0
1763590781.7343383,252139.578125,242396.71875,6398.3212890625,667102.9375,685617.0625,594682.125,687074.0,687305.5625,0.0
1763590781.7373416,252100.234375,242406.015625,6404.7587890625,667024.0,685503.875,594705.625,686970.25,687184.0,0.0
1763590781.737414,252129.203125,242402.984375,6401.361328125,667008.875,685503.4375,594811.6875,686952.9375,687136.3125,0.0
1763590781.741942,252161.03125,242398.421875,6390.2744140625,666991.625,685608.4375,595019.3125,687042.875,687202.0,0.0
1763590781.744697,252158.09375,242400.5625,6384.46337890625,666950.5,685643.25,595166.8125,687074.25,687224.4375,0.0
1763590781.7447705,252116.25,242409.515625,6386.876953125,666865.25,685538.875,595204.0,686989.75,687127.1875,0.0
1763590781.7469213,252125.28125,242413.4375,6387.05615234375,666834.4375,685485.5,595272.5625,686933.875,687041.3125,0.0
1763590781.7858305,252164.875,242408.53125,6377.66845703125,666829.5625,685588.5,595472.6875,687017.4375,687099.25,0.0
1763590781.7858803,252164.875,242409.15625,6374.896484375,666792.25,685632.5625,595623.6875,687054.125,687124.3125,0.0
1763590781.788338,252135.921875,242419.875,6379.45654296875,666721.8125,685554.5,595685.625,686995.3125,687057.25,0.0
1763590781.790982,252135.015625,242425.0625,6382.22802734375,666681.375,685473.5625,595753.75,686936.1875,686969.1875,0.0
1763590781.7931545,252173.203125,242419.875,6373.46630859375,666675.9375,685565.0625,595941.4375,687004.125,687012.5625,0.0
1763590781.7959185,252173.375,242421.484375,6372.66162109375,666635.6875,685608.4375,596090.5625,687036.0625,687029.25,0.0
1763590781.7980337,252151.5625,242429.09375,6377.04248046875,666572.9375,685555.5,596164.5,686994.5625,686971.875,0.0
1763590781.803192,252122.953125,242426.3125,6370.6943359375,666500.8125,685472.0,596192.9375,686962.75,686744.625,0.0
1763590781.8057814,252141.453125,242397.171875,6339.84912109375,666476.6875,685519.875,596333.8125,687020.3125,686852.0,0.0
1763590781.8081295,252140.828125,242387.328125,6326.61669921875,666432.25,685568.875,596486.5625,687055.0,687257.5,0.0
1763590781.8081863,252130.28125,242396.984375,6329.9248046875,666378.5,685546.5625,596582.75,687035.5,687340.5,0.0
1763590781.810626,252101.3125,242407.71875,6335.64697265625,666304.75,685462.5,596608.5625,686970.875,687215.3125,0.0
1763590781.8155634,252142.53125,242404.140625,6330.46142578125,666307.875,685510.9375,596761.0,687023.5625,687220.6875,0.0
1763590781.8156233,252162.015625,242409.6875,6332.07080078125,666281.6875,685582.375,596937.0625,687077.875,687258.125,0.0
1763590781.8180227,252156.203125,242416.921875,6334.48486328125,666239.4375,685581.125,597051.0,687074.6875,687252.5,0.0
1763590781.8208835,252117.40625,242425.0625,6339.9384765625,666157.75,685485.9375,597068.5625,686967.25,687126.875,0.0
1763590781.8209388,252152.359375,242424.703125,6336.3623046875,666148.875,685499.6875,597178.75,686958.8125,687093.0,0.0
1763590781.823662,252176.140625,242421.9375,6328.22607421875,666127.875,685571.1875,597352.8125,687014.3125,687128.6875,0.0
1763590781.8284347,252167.296875,242422.03125,6320.89501953125,666085.9375,685585.375,597476.5625,687022.125,687133.0,0.0
1763590781.831126,252121.15625,242427.125,6319.1962890625,666000.375,685495.0625,597490.0625,686951.3125,687009.625,0.0
1763590781.831212,252144.765625,242426.234375,6318.30224609375,665979.4375,685491.0,597578.75,686964.0,686951.9375,0.0
1763590781.8333786,252177.40625,242422.375,6313.5634765625,665964.0,685571.1875,597765.1875,687028.1875,686998.3125,0.0
1763590781.8692582,252174.53125,242422.65625,6309.5400390625,665920.125,685592.9375,597896.3125,687041.625,687007.8125,0.0
1763590781.8719018,252135.828125,242433.109375,6311.9541015625,665841.75,685514.25,597929.6875,686987.1875,686855.625,0.0
1763590781.8719845,252111.421875,242414.78125,6289.1552734375,665777.6875,685471.875,597953.375,686987.0,686674.125,0.0
1763590781.877178,252124.203125,242389.21875,6260.544921875,665747.75,685509.1875,598093.75,687015.0625,686976.6875,0.0
1763590781.8833454,252131.53125,242389.03125,6257.9521484375,665713.5625,685545.125,598236.25,687040.875,687333.25,0.0
1763590781.8897429,252115.984375,242402.53125,6266.44580078125,665653.125,685515.8125,598311.875,687002.6875,687326.1875,0.0
1763590781.8920615,252100.78125,242404.046875,6264.2109375,665595.125,685478.875,598342.25,686962.1875,687206.3125,0.0
1763590781.8942747,252143.15625,242391.625,6251.87255859375,665591.875,685555.9375,598525.3125,687039.8125,687250.5625,0.0
1763590781.896825,252147.453125,242394.578125,6251.6044921875,665558.875,685607.0625,598682.0,687079.0625,687277.5625,0.0
1763590781.8995557,252124.203125,242401.28125,6252.31982421875,665497.1875,685560.5,598756.875,687036.125,687231.3125,0.0
1763590781.9022415,252104.796875,242411.921875,6257.68408203125,665435.875,685483.625,598782.4375,686938.3125,687107.9375,0.0
1763590781.9045954,252154.328125,242411.03125,6256.4326171875,665439.875,685557.875,598954.375,686995.5625,687139.875,0.0
1763590781.9046416,252166.40625,242417.203125,6259.025390625,665408.6875,685624.5,599122.4375,687049.8125,687176.9375,0.0
1763590781.9071689,252150.84375,242424.96875,6259.3828125,665353.0,685592.0625,599207.1875,687021.6875,687145.25,0.0
1763590781.9096286,252110.96875,242425.25,6254.0185546875,665268.125,685482.375,599213.4375,686953.1875,687002.6875,0.0
1763590781.9096787,252148.515625,242412.453125,6237.8359375,665262.0,685529.5625,599355.6875,687019.4375,687002.25,0.0
1763590781.9118848,252168.09375,242409.234375,6232.3818359375,665235.625,685610.75,599541.6875,687086.375,687054.125,0.0
1763590781.9119415,252163.359375,242415.859375,6233.54443359375,665191.625,685612.8125,599657.4375,687088.875,687054.5,0.0
1763590781.9141805,252124.375,242423.359375,6234.70654296875,665110.6875,685493.875,599686.0,686994.125,686941.5625,0.0
1763590781.918187,252150.9375,242417.375,6226.12353515625,665095.3125,685499.625,599805.4375,686991.6875,686912.9375,0.0
1763590781.9182441,252173.015625,242413.625,6220.66943359375,665070.8125,685580.6875,599983.25,687053.25,686952.625,0.0
1763590781.9246628,252171.59375,242409.515625,6218.70263671875,665026.8125,685612.625,600124.8125,687082.1875,686972.3125,0.0
1763590781.9368443,252119.828125,242410.578125,6216.8251953125,664933.875,685520.25,600147.4375,687011.5625,686766.5625,0.0
1763590781.9368932,252113.203125,242389.125,6193.84765625,664883.0,685487.6875,600200.4375,687011.125,686733.125,0.0
1763590781.9396813,252134.65625,242376.15625,6179.09521484375,664861.875,685565.4375,600377.25,687074.25,687158.3125,0.0
1763590781.9397464,252140.75,242385.28125,6185.2646484375,664830.6875,685601.6875,600520.4375,687102.5,687388.9375,0.0
1763590781.9721875,252112.3125,242397.53125,6194.92041015625,664758.625,685528.0625,600571.5625,687032.875,687316.0,0.0
1763590781.9722395,252125.984375,242406.828125,6203.50341796875,664725.5625,685488.875,600636.1875,686975.0,687229.375,0.0
1763590781.9722483,252170.421875,242405.03125,6199.30126953125,664724.625,685579.375,600826.1875,687048.5,687279.9375,0.0
1763590781.9745972,252176.859375,242409.78125,6196.619140625,664690.1875,685640.625,600992.1875,687101.125,687320.125,0.0
1763590781.9797947,252144.9375,242417.640625,6201.53662109375,664615.5625,685565.75,601043.375,687033.0,687245.0,0.0
1763590781.982051,252139.765625,242425.6875,6213.33837890625,664571.8125,685492.5625,601087.5,686952.625,687135.3125,0.0
1763590781.9846864,252191.53125,242423.71875,6214.0537109375,664578.5625,685583.125,601280.4375,687028.0,687184.125,0.0
1763590781.990605,252190.90625,242414.78125,6201.71533203125,664533.5625,685634.9375,601437.9375,687069.3125,687209.4375,0.0
1763590781.9934435,252163.359375,242419.25,6203.14599609375,664465.1875,685584.0625,601506.6875,687026.3125,687156.125,0.0
1763590781.9979973,252132.703125,242425.421875,6204.93408203125,664397.875,685488.3125,601510.625,686969.875,687008.0625,0.0
1763590782.0047677,252176.78125,242421.84375,6197.96044921875,664404.5625,685560.6875,601678.6875,687044.375,687036.0,0.0
1763590782.0072556,252187.234375,242426.5,6198.67529296875,664376.9375,685633.6875,601856.625,687102.375,687079.4375,0.0
1763590782.0096188,252174.890625,242431.59375,6201.6259765625,664320.5,685605.75,601948.0625,687079.3125,687051.4375,0.0
1763590782.0096674,252142.703125,242436.328125,6203.86083984375,664239.4375,685492.375,601970.0625,686974.75,686924.5,0.0
1763590782.0118263,252185.625,242435.4375,6201.0,664241.3125,685536.0,602117.375,687001.8125,686926.0625,0.0
1763590782.0118797,252202.609375,242435.25,6198.31787109375,664218.75,685617.25,602297.1875,687065.9375,686968.625,0.0
1763590782.0145664,252186.34375,242435.4375,6196.26171875,664164.3125,685604.6875,602398.5,687054.0625,686933.75,0.0
1763590782.0146165,252132.078125,242431.328125,6187.767578125,664067.75,685504.6875,602394.625,686997.0625,686681.75,0.0
1763590782.0585515,252130.015625,242396.546875,6150.216796875,664028.0,685499.0,602462.5,687012.625,686758.4375,0.0
1763590782.0586672,252141.90625,242380.359375,6128.8486328125,663996.6875,685557.375,602626.6875,687057.8125,687179.0,0.0
1763590782.058691,252147.0,242390.640625,6134.4814453125,663963.0625,685585.4375,602763.375,687082.125,687405.125,0.0
1763590782.058714,252117.234375,242409.0625,6148.8759765625,663895.5625,685503.25,602802.5,687001.1875,687315.8125,0.0
1763590782.0587401,252144.140625,242414.78125,6152.0048828125,663883.3125,685496.125,602896.6875,686976.6875,687261.75,0.0
1763590782.0618336,252181.78125,242414.15625,6148.69677734375,663875.625,685590.4375,603091.125,687055.375,687315.8125,0.0
1763590782.0618837,252179.546875,242415.234375,6145.6572265625,663837.375,685620.0625,603229.1875,687078.6875,687328.6875,0.0
1763590782.0618944,252144.3125,242422.203125,6146.55126953125,663760.625,685547.1875,603280.0625,687012.25,687248.5,0.0
1763590782.0619028,252144.59375,242424.96875,6147.08740234375,663714.6875,685502.1875,603336.375,686985.25,687152.0,0.0
1763590782.064536,252185.625,242419.25,6142.8857421875,663711.5,685589.4375,603526.625,687074.75,687200.9375,0.0
1763590782.0646148,252185.71875,242421.484375,6141.90185546875,663669.0,685622.6875,603667.375,687098.3125,687212.0,0.0
1763590782.0672793,252161.484375,242432.9375,6148.25,663601.3125,685560.5625,603729.0625,687041.3125,687147.125,0.0
1763590782.0697358,252144.671875,242437.21875,6149.5908203125,663549.1875,685502.0,603772.3125,686962.375,687038.9375,0.0
1763590782.072095,252188.3125,242434.09375,6143.2431640625,663551.0,685584.875,603958.125,687031.6875,687082.0,0.0
1763590782.0742693,252194.203125,242437.140625,6142.97509765625,663518.5625,685633.8125,604113.0625,687070.375,687103.9375,0.0
1763590782.077075,252175.25,242441.6875,6147.2666015625,663458.125,685588.9375,604193.875,687033.9375,687061.875,0.0
1763590782.0810096,252156.390625,242452.609375,6157.54833984375,663393.5625,685487.8125,604226.875,686940.375,686941.1875,0.0
1763590782.1168804,252203.59375,242449.46875,6155.044921875,663400.5,685548.0625,604386.1875,686980.375,686954.5,0.0
1763590782.1169512,252214.0625,242448.75,6149.2333984375,663366.625,685613.0625,604555.625,687032.1875,686985.875,0.0
1763590782.1209674,252198.59375,242451.4375,6143.68994140625,663309.9375,685595.375,604653.5,687026.5,686938.3125,0.0
1763590782.1210392,252136.265625,242437.140625,6125.18310546875,663204.1875,685506.875,604644.875,687003.8125,686679.4375,0.0
1763590782.121063,252141.640625,242406.109375,6092.1025390625,663171.75,685512.9375,604732.75,687015.25,686817.5625,0.0
1763590782.1210833,252163.0,242404.59375,6083.51904296875,663150.375,685580.1875,604905.625,687073.25,687252.0,0.0
1763590782.123096,252168.734375,242417.109375,6089.33056640625,663114.0625,685595.1875,605032.9375,687088.125,687394.375,0.0
1763590782.125657,252133.140625,242430.25,6097.19873046875,663033.625,685500.75,605057.8125,686989.9375,687276.1875,0.0
1763590782.1282632,252165.78125,242436.0625,6098.98681640625,663026.5625,685513.625,605164.8125,686979.3125,687234.4375,0.0
1763590782.1305528,252200.640625,242436.0625,6094.0693359375,663018.3125,685609.75,605364.75,687062.5,687291.5,0.0
1763590782.1306026,252199.75,242441.6875,6095.76806640625,662975.1875,685635.875,605503.25,687085.0625,687304.5625,0.0
1763590782.1333451,252162.375,242454.21875,6104.70849609375,662898.125,685538.25,605537.0625,687001.125,687200.75,0.0
1763590782.1357253,252170.96875,242451.171875,6103.18896484375,662870.3125,685522.9375,605610.1875,686987.9375,687121.8125,0.0
1763590782.1383097,252203.0625,242444.828125,6094.51611328125,662858.0625,685608.875,605799.0,687068.875,687169.4375,0.0
1763590782.1409,252209.5,242452.609375,6096.662109375,662819.8125,685639.6875,605938.125,687092.6875,687182.75,0.0
1763590782.170638,252181.15625,242462.265625,6102.20556640625,662745.0,685558.25,605991.3125,687028.0,687106.3125,0.0
1763590782.170708,252179.8125,242463.328125,6100.77490234375,662701.625,685488.0625,606049.0625,686962.1875,687009.4375,0.0
1763590782.1808689,252219.234375,242456.796875,6094.6953125,662702.25,685580.3125,606237.5625,687034.1875,687055.625,0.0
1763590782.18092,252220.578125,242457.078125,6092.72802734375,662667.0,685622.6875,606385.125,687067.875,687074.25,0.0
1763590782.1835735,252185.625,242455.28125,6087.453125,662592.0,685560.375,606444.25,687015.125,686998.3125,0.0
1763590782.185631,252154.59375,242443.84375,6075.2939453125,662522.8125,685493.1875,606460.875,686984.3125,686757.375,0.0
1763590782.1883645,252169.625,242410.3125,6040.42529296875,662498.0625,685543.0625,606603.5,687047.625,686895.6875,0.0
1763590782.1945715,252166.84375,242404.328125,6029.517578125,662454.0625,685595.0,606758.1875,687087.3125,687302.875,0.0
1763590782.1971035,252155.046875,242418.359375,6039.7099609375,662400.625,685571.125,606853.375,687066.4375,687374.9375,0.0
1763590782.1992905,252133.765625,242435.890625,6052.22705078125,662338.0,685493.0625,606879.8125,686970.4375,687253.75,0.0
1763590782.202078,252177.84375,242436.953125,6050.259765625,662343.3125,685549.25,607034.25,687009.875,687266.625,0.0
1763590782.204595,252191.703125,242439.109375,6046.95166015625,662321.375,685622.4375,607208.9375,687071.3125,687306.9375,0.0
1763590782.206752,252180.703125,242438.921875,6043.82275390625,662270.0625,685615.8125,607316.9375,687066.375,687298.0,0.0
1763590782.2097027,252147.453125,242447.6875,6044.80615234375,662192.5625,685499.0625,607338.0625,686963.125,687174.625,0.0
1763590782.212047,252193.671875,242448.578125,6041.94482421875,662194.0,685537.0625,607484.5625,686990.625,687174.1875,0.0
1763590782.2145543,252213.4375,242446.796875,6035.060546875,662167.0,685626.75,607671.8125,687062.8125,687225.0625,0.0
1763590782.2146044,252206.375,242451.625,6037.1171875,662123.8125,685637.8125,607793.6875,687072.4375,687230.6875,0.0
1763590782.2174737,252165.515625,242461.8125,6043.46484375,662042.25,685526.5,607822.9375,686978.0625,687119.75,0.0
1763590782.2197068,252195.015625,242462.609375,6043.912109375,662029.9375,685531.1875,607930.3125,686966.4375,687078.625,0.0
1763590782.2197573,252219.953125,242454.921875,6036.1337890625,662012.5,685622.6875,608116.0,687039.375,687129.5,0.0
1763590782.2523377,252217.28125,242457.25,6034.61376953125,661971.0,685645.4375,608244.5625,687057.1875,687141.1875,0.0
1763590782.252411,252180.703125,242465.484375,6040.24609375,661890.6875,685546.75,608280.75,686982.9375,687046.0625,0.0
1763590782.2546332,252191.25,242458.40625,6036.22314453125,661861.5,685517.9375,608362.0,686986.1875,686977.875,0.0
1763590782.2546847,252222.453125,242449.46875,6026.56689453125,661849.875,685618.8125,608554.8125,687070.6875,687035.5,0.0
1763590782.2571175,252215.75,242446.515625,6017.62646484375,661799.3125,685650.3125,608688.875,687093.625,687050.8125,0.0
1763590782.2617753,252184.015625,242457.78125,6022.81201171875,661725.0625,685571.3125,608734.6875,687035.375,686944.0,0.0
1763590782.264584,252159.25,242444.28125,6006.62939453125,661661.8125,685512.1875,608763.5625,687012.875,686730.0,0.0
1763590782.267235,252176.5,242419.25,5981.23779296875,661637.5,685574.5,608912.625,687063.9375,686997.5,0.0
1763590782.2718327,252184.1875,242423.546875,5980.43310546875,661607.0,685628.0,609066.1875,687107.3125,687368.75,0.0
1763590782.2743397,252165.328125,242439.90625,5992.05615234375,661550.0,685582.6875,609141.9375,687068.5,687369.375,0.0
1763590782.2770247,252153.265625,242448.3125,6002.96337890625,661495.875,685500.5625,609174.9375,686979.4375,687253.25,0.0
1763590782.2797542,252200.828125,242442.140625,5998.76123046875,661500.8125,685577.9375,609346.5,687038.375,687286.3125,0.0
1763590782.2822347,252213.078125,242444.828125,6000.9072265625,661471.375,685640.5,609509.8125,687088.0,687319.8125,0.0
1763590782.2822847,252197.96875,242450.546875,6001.97998046875,661417.5,685615.375,609603.6875,687069.875,687298.375,0.0
1763590782.2846267,252171.859375,242465.125,6012.3515625,661351.75,685513.4375,609631.25,686973.6875,687177.6875,0.0
1763590782.28717,252213.515625,242460.734375,6008.328125,661354.0,685568.8125,609780.5625,687007.5625,687185.3125,0.0
1763590782.2905333,252228.09375,242457.609375,6001.7119140625,661323.0,685643.9375,609953.625,687068.4375,687226.3125,0.0
1763590782.2905848,252219.953125,242462.609375,6004.751953125,661275.6875,685640.25,610062.125,687067.0625,687221.25,0.0
1763590782.3222733,252183.65625,242472.984375,6009.57958984375,661196.0,685520.25,610084.375,686969.375,687102.5,0.0
1763590782.3272638,252220.3125,242471.921875,6005.55615234375,661189.5,685545.0,610218.5625,686985.4375,687091.5625,0.0
1763590782.3273532,252237.75,242466.640625,5995.00634765625,661162.0625,685632.1875,610398.125,687051.8125,687136.3125,0.0
1763590782.329426,252233.28125,242470.484375,5995.095703125,661121.8125,685640.4375,610514.0625,687056.0,687136.1875,0.0
1763590782.332007,252193.5,242477.28125,5996.5263671875,661041.0625,685531.3125,610535.3125,686986.5,687020.125,0.0
1763590782.3395388,252218.078125,242471.46875,5986.60205078125,661021.3125,685526.8125,610638.25,687012.25,686976.6875,0.0
1763590782.3419137,252248.484375,242473.34375,5979.98583984375,661007.8125,685614.0625,610820.375,687076.375,687021.0625,0.0
1763590782.3444498,252243.65625,242471.015625,5972.296875,660968.9375,685635.4375,610945.875,687091.125,687029.0625,0.0
1763590782.3444643,252199.578125,242478.53125,5971.4921875,660888.625,685555.5625,610979.875,687035.0625,686873.6875,0.0
1763590782.3467743,252172.125,242448.046875,5939.7529296875,660827.9375,685505.5,611003.1875,687011.5,686712.9375,0.0
1763590782.3495836,252186.4375,242419.078125,5907.65576171875,660800.6875,685565.5625,611162.5,687059.25,687061.4375,0.0
1763590782.3496335,252196.984375,242426.046875,5911.41064453125,660775.375,685619.25,611319.4375,687104.0,687397.1875,0.0
1763590782.3572724,252176.59375,242445.625,5927.146484375,660710.4375,685555.5,611378.875,687044.625,687356.6875,0.0
1763590782.3573878,252177.578125,242451.078125,5929.560546875,660661.25,685500.5,611427.875,686972.25,687254.125,0.0
1763590782.35918,252223.0,242451.4375,5929.91796875,660668.875,685586.9375,611612.6875,687042.875,687298.1875,0.0
1763590782.361719,252225.328125,242453.5,5932.06396484375,660638.3125,685631.6875,611760.125,687076.625,687317.3125,0.0
1763590782.3617332,252197.96875,242461.71875,5935.908203125,660573.625,685570.5625,611818.625,687019.0,687254.5625,0.0
1763590782.3642735,252184.734375,242466.015625,5937.60693359375,660519.5,685495.125,611861.4375,686960.875,687144.0625,0.0
1763590782.3672032,252224.515625,242458.953125,5927.50390625,660516.0,685566.75,612034.4375,687052.0,687174.4375,0.0
1763590782.400656,252230.953125,242458.6875,5925.537109375,660477.8125,685623.875,612191.3125,687093.0,687198.6875,0.0
1763590782.4007292,252214.328125,242466.734375,5928.66650390625,660422.9375,685584.25,612266.0,687053.875,687154.375,0.0
1763590782.4122536,252183.84375,242472.265625,5927.7724609375,660349.3125,685504.4375,612283.9375,686949.5,687025.25,0.0
1763590782.412328,252226.9375,242468.875,5924.19580078125,660348.1875,685548.875,612425.125,686973.1875,687022.0,0.0
1763590782.4123492,252243.828125,242470.578125,5926.1630859375,660327.625,685617.1875,612596.0625,687030.3125,687057.1875,0.0
1763590782.4158895,252228.359375,242471.640625,5926.69921875,660277.375,685598.875,612687.8125,687018.6875,687022.125,0.0
1763590782.4159389,252172.921875,242463.875,5916.86474609375,660184.0,685510.9375,612671.0,687002.25,686759.0625,0.0
1763590782.4159482,252178.203125,242437.21875,5889.7744140625,660148.8125,685514.5625,612734.5,687024.25,686800.375,0.0
1763590782.415954,252199.9375,242432.125,5881.0126953125,660126.4375,685571.375,612897.1875,687069.25,687222.625,0.0
1763590782.4182951,252202.25,242436.515625,5882.89013671875,660087.8125,685583.8125,613016.1875,687078.0,687390.75,0.0
1763590782.420596,252167.5625,242449.921875,5892.27783203125,660014.5,685519.375,613039.375,687010.25,687279.3125,0.0
1763590782.4234135,252188.75,242450.359375,5891.7412109375,660001.625,685526.8125,613118.5625,687038.625,687213.1875,0.0
1763590782.4259405,252226.65625,242451.171875,5888.25439453125,659995.5625,685606.1875,613302.75,687110.0,687260.9375,0.0
1763590782.4281008,252228.265625,242456.796875,5889.05908203125,659960.875,685628.8125,613431.5,687128.0,687270.125,0.0
1763590782.4307764,252191.171875,242467.71875,5896.30126953125,659882.1875,685547.8125,613460.5625,687039.8125,687168.75,0.0
1763590782.4333196,252200.46875,242467.890625,5895.7646484375,659852.25,685514.5625,613511.4375,686974.125,687072.8125,0.0
1763590782.4367523,252240.96875,242462.703125,5888.1650390625,659849.8125,685591.875,613692.9375,687042.25,687116.0,0.0
1763590782.4368036,252239.71875,242460.203125,5883.158203125,659809.5625,685619.5625,613826.5625,687063.6875,687125.125,0.0
1763590782.4768891,252207.34375,242469.59375,5889.05908203125,659735.625,685556.8125,613867.0625,687012.25,687027.75,0.0
1763590782.480738,252180.96875,242457.609375,5874.9326171875,659674.3125,685506.3125,613873.1875,687008.1875,686783.375,0.0
1763590782.4808242,252197.515625,242428.1875,5840.86865234375,659655.625,685546.8125,614011.3125,687052.125,686970.875,0.0
1763590782.4808598,252198.671875,242425.328125,5830.05029296875,659619.3125,685583.1875,614150.125,687080.75,687346.5,0.0
1763590782.4830687,252184.734375,242441.96875,5840.6005859375,659565.9375,685549.3125,614219.25,687045.0,687359.375,0.0
1763590782.4856207,252163.546875,242448.671875,5844.1767578125,659502.625,685496.75,614225.4375,687000.8125,687220.4375,0.0
1763590782.4881024,252211.640625,242446.96875,5841.4052734375,659509.8125,685548.4375,614378.375,687064.0625,687237.75,0.0
1763590782.4907825,252228.265625,242451.796875,5841.7626953125,659492.375,685614.25,614547.3125,687118.6875,687277.1875,0.0
1763590782.4933825,252212.359375,242458.234375,5844.89208984375,659440.0,685587.75,614633.5625,687092.3125,687246.6875,0.0
1763590782.4959252,252182.3125,242468.703125,5850.88232421875,659370.75,685518.5625,614644.3125,686983.9375,687113.0625,0.0
1763590782.496,252217.09375,242462.703125,5845.87548828125,659367.0,685547.1875,614762.9375,686991.4375,687093.1875,0.0
1763590782.498037,252236.671875,242464.84375,5845.96484375,659344.8125,685606.375,614928.25,687044.75,687126.125,0.0
1763590782.5008347,252229.703125,242469.765625,5845.69677734375,659299.3125,685592.25,615021.625,687033.5,687103.1875,0.0
1763590782.5083876,252186.78125,242471.28125,5843.0146484375,659216.75,685517.8125,615020.625,686985.4375,686935.1875,0.0
1763590782.5084405,252206.375,242455.375,5825.4013671875,659191.0,685523.625,615112.375,686999.125,686795.75,0.0
1763590782.5109308,252207.34375,242434.453125,5800.3671875,659146.1875,685571.3125,615261.5,687036.5,687082.4375,0.0
1763590782.5132625,252205.109375,242439.375,5799.0263671875,659104.1875,685581.5,615376.4375,687043.5,687374.1875,0.0
1763590782.5170765,252168.90625,242452.421875,5807.7880859375,659028.625,685524.5625,615396.6875,687003.25,687284.625,0.0
1763590782.5255628,252190.0,242452.328125,5808.2353515625,659013.3125,685529.1875,615475.8125,687032.9375,687220.125,0.0
1763590782.52561,252224.515625,242452.15625,5808.771484375,659005.5625,685598.75,615653.4375,687095.9375,687259.5,0.0
1763590782.5281515,252225.40625,242455.015625,5810.47021484375,658971.5625,685620.1875,615779.25,687114.375,687265.5625,0.0
1763590782.5305414,252192.859375,242463.15625,5815.208984375,658898.875,685545.1875,615811.625,687033.125,687169.375,0.0
1763590782.5305848,252201.71875,242463.953125,5816.28173828125,658867.6875,685520.8125,615873.9375,686979.375,687081.125,0.0
1763590782.5331,252239.8125,242461.8125,5812.9736328125,658864.875,685599.8125,616056.0625,687052.6875,687123.75,0.0
1763590782.569488,252244.546875,242466.015625,5812.52685546875,658828.8125,685638.625,616200.4375,687088.875,687142.8125,0.0
1763590782.573086,252217.984375,242478.078125,5817.623046875,658761.9375,685575.0625,616254.0625,687034.625,687071.0,0.0
1763590782.5731294,252200.734375,242479.78125,5816.6396484375,658708.875,685525.625,616281.0625,686988.3125,686947.75,0.0
1763590782.5731385,252241.421875,242471.015625,5807.162109375,658713.5625,685601.25,616456.3125,687065.5625,686984.375,0.0
1763590782.575814,252247.671875,242476.109375,5807.7880859375,658684.125,685652.5625,616611.0,687109.625,687011.125,0.0
1763590782.5782697,252224.78125,242482.375,5807.07275390625,658627.0,685603.9375,616679.625,687073.875,686919.8125,0.0
1763590782.5842905,252183.84375,242469.140625,5789.72802734375,658544.1875,685510.9375,616680.75,687020.9375,686698.1875,0.0
1763590782.5871832,252203.6875,242438.75,5756.2001953125,658521.9375,685544.1875,616808.125,687067.0,686953.375,0.0
1763590782.5897727,252214.328125,242438.203125,5749.94189453125,658495.5,685606.25,616970.5,687120.125,687353.875,0.0
1763590782.592345,252210.03125,242454.5625,5762.36962890625,658454.1875,685591.0625,617068.3125,687109.5625,687403.25,0.0
1763590782.594571,252185.53125,242466.90625,5769.52197265625,658391.5,685509.8125,617091.8125,687016.3125,687282.625,0.0
1763590782.5972743,252230.78125,242465.125,5766.5712890625,658403.1875,685561.125,617245.5,687057.5,687294.5625,0.0
1763590782.601818,252254.296875,242467.796875,5768.44921875,658388.75,685649.6875,617433.875,687136.75,687348.875,0.0
1763590782.6018665,252245.625,242467.890625,5764.87255859375,658341.9375,685647.1875,617541.0,687137.0,687341.9375,0.0
1763590782.6047413,252206.1875,242476.921875,5770.2373046875,658263.0,685539.1875,617556.4375,687034.4375,687218.875,0.0
1763590782.6048012,252245.96875,242484.703125,5777.0322265625,658271.25,685552.0,617674.3125,687037.3125,687190.8125,0.0
1763590782.6094477,252269.9375,242483.09375,5772.025390625,658253.375,685639.625,617858.1875,687110.25,687239.625,0.0
1763590782.6095524,252257.859375,242484.34375,5769.4326171875,658206.0625,685645.25,617971.375,687114.1875,687236.6875,0.0
1763590782.6121602,252213.703125,242494.4375,5772.6513671875,658124.0,685551.125,617982.9375,687021.75,687115.5625,0.0
1763590782.645856,252228.265625,242491.140625,5765.76708984375,658097.625,685548.875,618053.5,687022.3125,687043.6875,0.0
1763590782.6459053,252265.640625,242486.84375,5759.95556640625,658087.75,685634.25,618240.625,687101.0,687097.1875,0.0
1763590782.6480813,252267.25,242487.65625,5758.52490234375,658052.3125,685665.1875,618375.625,687127.5,687114.5,0.0
1763590782.648126,252227.5625,242492.03125,5757.0048828125,657973.8125,685581.75,618407.8125,687062.25,686990.9375,0.0
1763590782.6518548,252206.1875,242470.578125,5732.95458984375,657912.75,685528.125,618422.375,687046.0625,686764.25,0.0
1763590782.6519008,252224.15625,242442.59375,5705.8642578125,657889.3125,685581.0625,618571.5,687097.5,687036.6875,0.0
1763590782.65191,252226.65625,242445.625,5705.77490234375,657856.1875,685610.625,618702.375,687120.0,687378.6875,0.0
1763590782.6519196,252206.640625,242458.140625,5715.4306640625,657801.9375,685566.8125,618763.0,687068.4375,687358.4375,0.0
1763590782.6546297,252197.96875,242469.046875,5724.72900390625,657758.5625,685512.6875,618787.9375,686976.3125,687238.3125,0.0
1763590782.6546795,252248.75,242467.09375,5724.10302734375,657767.375,685575.6875,618954.6875,687032.875,687268.625,0.0
1763590782.6571908,252258.046875,242471.203125,5722.8515625,657735.9375,685623.875,619105.375,687071.8125,687292.75,0.0
1763590782.6597304,252239.265625,242480.59375,5727.4111328125,657681.25,685585.6875,619176.25,687044.3125,687248.6875,0.0
1763590782.6671052,252210.21875,242484.34375,5729.10986328125,657614.0,685518.625,619177.6875,687015.0625,687108.0625,0.0
1763590782.7016263,252258.765625,242476.109375,5724.1923828125,657623.9375,685575.6875,619329.5,687077.0,687124.6875,0.0
1763590782.70168,252274.40625,242480.046875,5727.32177734375,657592.625,685633.375,619489.4375,687123.125,687155.125,0.0
1763590782.7080712,252263.140625,242483.453125,5730.451171875,657542.6875,685609.0625,619577.3125,687101.0,687129.6875,0.0
1763590782.708119,252228.984375,242489.078125,5734.11669921875,657469.625,685521.4375,619589.125,686996.0,687001.125,0.0
1763590782.7081292,252272.625,242488.71875,5733.0439453125,657473.4375,685565.25,619725.6875,687023.0,686998.625,0.0
1763590782.710636,252285.3125,242483.359375,5724.90771484375,657445.1875,685637.0,619897.5625,687086.5625,687040.5625,0.0
1763590782.7106547,252268.859375,242482.828125,5719.4541015625,657394.0,685630.0625,619997.375,687081.1875,687026.3125,0.0
1763590782.71671,252219.6875,242484.078125,5714.98388671875,657306.25,685539.125,620006.5,687024.25,686808.625,0.0
1763590782.7192073,252219.953125,242455.46875,5682.17138671875,657270.875,685528.125,620077.5,687037.5625,686787.4375,0.0
1763590782.7217708,252230.328125,242443.65625,5663.93212890625,657244.0625,685585.1875,620234.9375,687086.25,687195.3125,0.0
1763590782.7242365,252237.03125,242456.453125,5668.93896484375,657221.25,685607.4375,620364.75,687110.8125,687430.0,0.0
1763590782.7242792,252207.0,242470.578125,5677.25390625,657154.5625,685539.5,620404.0,687033.8125,687342.625,0.0
1763590782.7292411,252223.359375,242475.21875,5682.6181640625,657139.375,685524.625,620483.0,686998.0,687273.4375,0.0
1763590782.7316804,252260.09375,242470.9375,5675.4658203125,657138.4375,685609.5,620676.0625,687079.1875,687326.25,0.0
1763590782.7341816,252260.8125,242472.984375,5671.62109375,657101.875,685642.125,620819.5625,687113.125,687345.25,0.0
1763590782.7366807,252224.25,242481.65625,5676.00244140625,657026.25,685568.0625,620855.25,687035.6875,687253.9375,0.0
1763590782.7392156,252224.875,242485.953125,5679.0419921875,656990.875,685521.75,620906.75,686968.625,687154.0,0.0
1763590782.739238,252268.59375,242486.75,5678.59521484375,656994.5,685588.8125,621087.625,687036.6875,687192.625,0.0
1763590782.7417324,252271.359375,242482.203125,5669.4755859375,656959.75,685628.6875,621240.375,687077.0,687215.9375,0.0
1763590782.7467067,252238.203125,242485.5,5665.36279296875,656887.5,685568.1875,621293.6875,687034.8125,687147.125,0.0
1763590782.750499,252221.921875,242490.25,5667.8662109375,656838.0625,685520.8125,621312.1875,687005.8125,687021.875,0.0
1763590782.75054,252266.265625,242483.8125,5660.087890625,656848.3125,685582.8125,621482.875,687071.0,687060.375,0.0
1763590782.7592418,252266.359375,242480.046875,5650.61083984375,656814.6875,685621.375,621631.1875,687113.75,687091.0625,0.0
1763590782.7944992,252252.140625,242482.734375,5648.2861328125,656765.0,685598.5625,621727.1875,687106.8125,687087.375,0.0
1763590782.7945628,252234.0,242495.078125,5657.13720703125,656703.9375,685520.5,621767.0625,687038.5,687001.9375,0.0
1763590782.7945812,252278.703125,242500.25,5658.38916015625,656711.375,685576.125,621921.75,687095.4375,687040.625,0.0
1763590782.7967155,252289.15625,242492.03125,5648.107421875,656687.9375,685661.1875,622103.25,687185.75,687118.6875,0.0
1763590782.79674,252281.296875,242500.078125,5655.259765625,656644.6875,685664.5,622214.6875,687212.3125,687152.9375,0.0
1763590782.7990365,252253.21875,242500.875,5653.4716796875,656575.4375,685576.875,622272.5,687175.4375,687107.75,0.0
1763590782.825405,252277.265625,242485.0625,5634.15966796875,656556.3125,685623.5,622418.125,687234.1875,687152.0,0.0
1763590782.8280437,252296.578125,242473.875,5620.3017578125,656539.875,685768.4375,622643.375,687382.1875,687290.25,0.0
1763590782.8305564,252278.96875,242470.03125,5616.63623046875,656487.5625,685808.875,622777.375,687445.4375,687362.3125,0.0
1763590782.8329308,252240.609375,242475.140625,5617.79833984375,656412.0,685729.5,622829.6875,687419.5,687333.0,0.0
1763590782.8355377,252266.890625,242467.984375,5605.63916015625,656400.9375,685777.9375,622980.5,687495.1875,687394.375,0.0
1763590782.8382597,252286.125,242462.4375,5594.552734375,656387.8125,685933.125,623207.875,687657.375,687546.75,0.0
1763590782.84052,252275.921875,242456.796875,5591.1552734375,656352.6875,686023.625,623381.75,687769.8125,687668.625,0.0
1763590782.842991,252233.640625,242459.390625,5588.919921875,656274.25,685989.1875,623462.0,687786.25,687689.375,0.0
1763590782.845431,252243.109375,242457.703125,5584.2705078125,656244.5625,686008.6875,623584.3125,687842.8125,687732.625,0.0
1763590782.8479173,252288.0,242462.96875,5585.96923828125,656250.75,686198.25,623835.5,688038.25,687917.5,0.0
1763590782.8504865,252272.4375,242443.21875,5560.3095703125,656201.0,686318.1875,624024.875,688180.1875,688065.125,0.0
1763590782.8529077,252229.4375,242430.25,5541.80224609375,656119.75,686344.5,624149.8125,688255.75,688151.5625,0.0
1763590782.8555524,252220.3125,242425.15625,5534.560546875,656075.9375,686375.25,624284.1875,688334.8125,688224.125,0.0
1763590782.8592017,252255.546875,242415.5,5522.84814453125,656075.875,686592.625,624552.125,688556.625,688444.6875,0.0
1763590782.8592365,252250.265625,242409.15625,5513.63916015625,656030.8125,686766.25,624782.0625,688744.375,688643.0,0.0
1763590782.8592532,252226.125,242420.5,5520.3447265625,655963.625,686821.8125,624918.4375,688833.5,688753.0625,0.0
1763590782.8731186,252210.921875,242419.34375,5519.62939453125,655910.4375,686838.3125,625035.8125,688892.75,688812.125,0.0
1763590782.8781183,252245.96875,242403.703125,5506.03955078125,655897.3125,687029.0,625277.5,689085.375,689003.125,0.0
1763590782.878168,252242.3125,242396.8125,5495.1318359375,655853.0625,687184.125,625488.125,689248.375,689175.75,0.0
1763590782.8805983,252224.0625,242403.703125,5498.7080078125,655803.3125,687260.1875,625639.9375,689351.875,689304.75,0.0
1763590782.8836434,252209.140625,242432.671875,5526.15625,655754.625,687241.8125,625732.625,689381.5,689337.125,0.0
1763590782.8860447,252250.984375,242432.3125,5527.05029296875,655754.0625,687387.3125,625942.1875,689530.9375,689483.75,0.0
1763590782.888336,252245.078125,242432.03125,5523.9208984375,655708.75,687504.625,626118.5,689650.125,689604.8125,0.0
1763590782.8908944,252228.8125,242435.4375,5522.66943359375,655657.9375,687546.6875,626238.625,689712.625,689685.375,0.0
1763590782.8909445,252189.203125,242445.453125,5527.58642578125,655574.9375,687463.9375,626273.9375,689675.875,689647.8125,0.0
1763590782.8932831,252225.234375,242448.84375,5533.84521484375,655574.3125,687529.6875,626422.0625,689752.875,689715.75,0.0
1763590782.895748,252250.796875,242456.0,5543.05419921875,655556.75,687650.375,626611.9375,689874.4375,689831.9375,0.0
1763590782.8983448,252241.59375,242463.421875,5548.23974609375,655510.8125,687677.4375,626724.5,689916.5,689886.625,0.0
1763590782.8983943,252198.671875,242473.4375,5554.05126953125,655429.375,687560.625,626734.0625,689840.5,689810.875,0.0
1763590782.903375,252216.03125,242466.546875,5549.22314453125,655409.125,687541.6875,626817.25,689835.1875,689790.0625,0.0
1763590782.9034493,252238.375,242467.984375,5548.955078125,655393.5,687621.5,626972.75,689905.9375,689848.0625,0.0
1763590782.9057777,252241.140625,242473.609375,5553.3359375,655359.0625,687653.625,627096.9375,689947.6875,689891.875,0.0
1763590782.9392672,252208.953125,242491.5,5566.65771484375,655279.6875,687535.3125,627107.5625,689865.5,689805.25,0.0
1763590782.9461274,252216.46875,242490.78125,5565.40576171875,655250.875,687450.75,627148.375,689803.8125,689719.0625,0.0
1763590782.946198,252250.0,242491.5,5564.6904296875,655243.3125,687512.625,627297.375,689853.1875,689746.625,0.0
1763590782.9462185,252238.015625,242486.390625,5557.98486328125,655193.5,687483.1875,627367.5625,689823.9375,689711.5,0.0
1763590782.9493487,252207.796875,242485.140625,5555.1240234375,655123.375,687362.3125,627378.375,689725.4375,689612.75,0.0
1763590782.9493964,252209.765625,242497.484375,5563.26025390625,655082.75,687229.5625,627387.5,689613.375,689479.0,0.0
1763590782.9494057,252248.03125,242500.171875,5564.60107421875,655081.125,687250.375,627502.4375,689613.125,689457.625,0.0
1763590782.9533777,252242.046875,242500.25,5560.39892578125,655043.0,687216.375,627574.6875,689568.4375,689403.5,0.0
1763590782.9534264,252218.796875,242513.3125,5568.80322265625,654985.1875,687075.375,627566.3125,689437.25,689275.4375,0.0
1763590782.9534357,252219.0625,242533.34375,5588.7412109375,654945.6875,686893.1875,627543.6875,689277.125,689095.75,0.0
1763590782.9562151,252252.765625,242528.78125,5585.16455078125,654944.0625,686858.6875,627616.4375,689220.4375,689018.75,0.0
1763590782.9562893,252257.15625,242532.796875,5588.115234375,654910.0625,686806.375,627677.1875,689153.0625,688940.3125,0.0
1763590782.9606652,252247.40625,242541.390625,5592.76416015625,654862.0,686671.3125,627675.0,689021.25,688813.8125,0.0
1763590782.9645927,252234.625,242567.3125,5615.20556640625,654811.1875,686441.0,627609.9375,688817.125,688594.25,0.0
1763590782.9646409,252302.125,242587.609375,5635.14306640625,654832.3125,686390.8125,627675.75,688751.0625,688509.125,0.0
1763590782.9960067,252322.0625,242592.796875,5638.98779296875,654808.6875,686344.3125,627738.375,688686.25,688431.875,0.0
1763590782.9993918,252311.421875,242595.5625,5637.37841796875,654766.0625,686209.9375,627729.75,688552.5625,688305.625,0.0
1763590782.9994595,252272.703125,242607.640625,5644.62060546875,654689.0625,685944.3125,627629.5,688313.6875,688058.625,0.0
1763590782.9994695,252300.328125,242603.875,5638.7197265625,654680.0625,685820.9375,627634.25,688183.75,687911.25,0.0
1763590782.9994788,252313.5625,242603.25,5635.41162109375,654652.125,685760.5625,627683.75,688106.0625,687818.8125,0.0
1763590783.002328,252302.75,242603.875,5635.23291015625,654606.625,685624.6875,627655.875,687955.25,687674.875,0.0
1763590783.00468,252256.078125,242599.046875,5628.7060546875,654517.9375,685506.0625,627528.5,687700.4375,687416.5625,0.0
1763590783.0070727,252256.875,242578.484375,5606.80126953125,654483.3125,685498.8125,627456.5625,687515.1875,687210.6875,0.0
1763590783.009626,252265.203125,242564.359375,5590.79736328125,654454.0,685527.125,627465.625,687418.4375,687093.8125,0.0
1763590783.0117965,252258.140625,242563.46875,5590.08203125,654413.3125,685515.625,627427.1875,687281.8125,686880.375,0.0
1763590783.0146606,252188.21875,242547.828125,5569.5185546875,654312.375,685430.0625,627251.125,687096.75,686587.6875,0.0
1763590783.017253,252128.21875,242496.6875,5518.82470703125,654225.875,685366.9375,627048.8125,687018.375,686519.9375,0.0
1763590783.019657,252134.9375,242452.328125,5477.787109375,654189.625,685405.0,627012.875,686977.875,686657.9375,0.0
1763590783.0255828,252105.15625,242419.96875,5440.951171875,654122.25,685411.0,626955.1875,686980.1875,686788.0625,0.0
1763590783.0256321,252020.484375,242386.0,5400.71826171875,654002.9375,685358.6875,626763.75,686998.0,686784.625,0.0
1763590783.0645723,252010.296875,242396.90625,5409.47998046875,653962.0,685311.3125,626601.125,686965.5,686781.9375,0.0
1763590783.0758917,252058.671875,242400.5625,5414.3974609375,653971.1875,685396.8125,626587.3125,686939.6875,686976.25,0.0
1763590783.075944,252035.25,242373.203125,5385.787109375,653911.5,685393.375,626521.0625,686964.0,687193.5,0.0
1763590783.0759568,252013.515625,242385.375,5393.65478515625,653862.875,685371.6875,626408.9375,686977.6875,687078.875,0.0
1763590783.07804,252012.4375,242408.703125,5413.68212890625,653820.5625,685350.5,626266.25,686981.25,686718.25,0.0
1763590783.081159,252055.53125,242404.40625,5406.9765625,653822.8125,685384.4375,626241.0,686935.9375,686723.6875,0.0
1763590783.083272,252052.5,242395.828125,5393.92333984375,653780.5,685376.5625,626208.375,686947.0,686886.5625,0.0
1763590783.0908766,252017.625,242376.421875,5373.27001953125,653709.25,685374.0,626105.5,686966.6875,687097.125,0.0
1763590783.0909266,251995.640625,242383.140625,5379.26025390625,653647.625,685363.4375,625973.875,686951.5,687059.125,0.0
1763590783.0932107,252053.75,242394.21875,5392.4033203125,653671.0625,685428.375,625989.5,686920.25,686975.8125,0.0
1763590783.093284,252091.390625,242415.671875,5413.05615234375,653675.8125,685466.875,626048.5,686908.75,686930.625,0.0
1763590783.0955489,252087.359375,242419.25,5412.4306640625,653641.8125,685460.0,626034.9375,686946.1875,686757.0,0.0
1763590783.0983791,252018.4375,242390.640625,5382.568359375,653537.125,685410.8125,625902.8125,686993.0625,686534.125,0.0
1763590783.1008306,252016.640625,242359.34375,5353.33251953125,653507.625,685420.8125,625867.0,686940.125,686665.9375,0.0
1763590783.103415,252033.1875,242348.171875,5337.41796875,653486.375,685442.1875,625937.0,686939.5,686993.6875,0.0
1763590783.1056323,252054.734375,242367.671875,5350.3818359375,653476.625,685438.4375,626011.9375,686967.75,687317.1875,0.0
1763590783.1088026,252019.5,242373.03125,5354.0478515625,653401.125,685418.0625,625960.5625,686974.3125,687211.5,0.0
1763590783.108872,252047.765625,242372.671875,5358.51806640625,653392.8125,685434.875,625979.5,686995.5625,687123.6875,0.0
1763590783.1108503,252096.046875,242384.828125,5371.6611328125,653405.0625,685454.5625,626118.375,687060.3125,687153.75,0.0
1763590783.113525,252107.03125,242397.796875,5382.65771484375,653383.0,685461.6875,626200.875,687070.375,687145.6875,0.0
1763590783.1135752,252079.765625,242411.296875,5390.52587890625,653315.125,685449.1875,626180.0625,686999.75,687015.25,0.0
1763590783.1158595,252071.0,242397.53125,5375.416015625,653268.5,685437.625,626159.8125,686992.8125,686775.25,0.0
1763590783.1195996,252100.0625,242380.265625,5356.72998046875,653258.0,685451.9375,626282.3125,687048.5625,686977.25,0.0
1763590783.1508913,252116.15625,242394.3125,5366.654296875,653235.8125,685452.8125,626388.6875,687075.5,687338.875,0.0
1763590783.1509633,252106.765625,242411.75,5380.69091796875,653187.125,685451.6875,626419.625,687035.5,687328.9375,0.0
1763590783.153124,252099.96875,242411.03125,5379.9755859375,653141.875,685441.125,626418.75,687001.5625,687200.0625,0.0
1763590783.1531732,252150.3125,242414.875,5380.15478515625,653150.1875,685482.6875,626563.4375,687067.6875,687218.375,0.0
1763590783.1555245,252161.3125,242424.96875,5386.234375,653121.875,685479.375,626679.8125,687095.0,687212.75,0.0
1763590783.158056,252149.140625,242431.765625,5392.93994140625,653072.0625,685475.5625,626735.0,687064.25,687160.9375,0.0
1763590783.160808,252124.03125,242429.984375,5394.0126953125,653007.6875,685454.375,626718.6875,686999.75,687011.625,0.0
1763590783.1633666,252175.4375,242428.1875,5392.13525390625,653014.625,685507.75,626857.8125,687079.0625,687021.75,0.0
1763590783.165795,252186.078125,242428.8125,5390.70458984375,652986.0625,685525.1875,626997.6875,687126.25,687035.8125,0.0
1763590783.1731515,252176.328125,242436.0625,5396.51611328125,652941.9375,685509.375,627064.5625,687106.25,686979.9375,0.0
1763590783.1782572,252150.3125,242446.96875,5402.953125,652877.4375,685492.4375,627062.6875,687014.6875,686748.0,0.0
1763590783.1807284,252170.96875,242423.90625,5380.4228515625,652860.75,685517.9375,627167.875,687039.5625,686914.625,0.0
1763590783.180789,252179.90625,242411.46875,5369.69384765625,652830.8125,685560.25,627323.0,687108.8125,687331.9375,0.0
1763590783.1883967,252183.21875,242425.515625,5383.1943359375,652803.75,685563.625,627431.625,687133.875,687437.6875,0.0
1763590783.1884465,252175.96875,242458.859375,5415.64892578125,652759.8125,685526.9375,627477.9375,687086.5625,687358.4375,0.0
1763590783.1884556,252221.03125,242469.140625,5428.61328125,652767.1875,685550.75,627601.6875,687120.4375,687349.8125,0.0
1763590783.1908948,252246.515625,242469.328125,5427.6298828125,652754.1875,685625.5625,627780.6875,687209.3125,687401.5,0.0
1763590783.1935456,252251.609375,242478.890625,5435.408203125,652725.4375,685650.625,627911.375,687252.8125,687427.9375,0.0
1763590783.195766,252212.625,242485.234375,5441.3984375,652651.125,685560.375,627933.6875,687177.5,687328.125,0.0
1763590783.2008164,252228.984375,242480.40625,5436.7490234375,652631.8125,685548.25,628019.875,687167.875,687277.5625,0.0
1763590783.2030575,252263.953125,242480.140625,5433.70947265625,652627.0,685640.0625,628212.6875,687269.0625,687342.5625,0.0
1763590783.2067933,252266.890625,242479.875,5431.65283203125,652601.25,685678.9375,628354.875,687323.0625,687376.875,0.0
1763590783.2384899,252241.328125,242497.578125,5446.583984375,652543.8125,685604.9375,628413.0,687286.9375,687321.8125,0.0
1763590783.238538,252252.140625,242506.6875,5457.40234375,652517.5625,685554.75,628491.8125,687263.6875,687259.5625,0.0
1763590783.243569,252276.8125,242491.765625,5443.8125,652499.75,685635.875,628665.0,687342.0,687303.0625,0.0
1763590783.24362,252271.453125,242485.5,5438.537109375,652463.4375,685664.1875,628797.0,687380.4375,687321.375,0.0
1763590783.2457252,252228.8125,242469.234375,5418.599609375,652381.125,685598.5625,628845.8125,687334.875,687262.8125,0.0
1763590783.2480206,252213.875,242466.734375,5416.72216796875,652327.125,685550.5625,628886.8125,687274.3125,687166.6875,0.0
1763590783.250887,252269.671875,242475.578125,5424.05322265625,652346.0625,685650.1875,629084.4375,687376.8125,687237.25,0.0
1763590783.2535543,252289.78125,242497.84375,5441.48779296875,652333.5625,685716.125,629253.75,687452.3125,687290.4375,0.0
1763590783.255574,252265.015625,242495.703125,5434.9609375,652271.25,685665.25,629325.75,687427.9375,687262.4375,0.0
1763590783.2582288,252243.828125,242505.53125,5441.5771484375,652208.375,685553.25,629357.0,687351.3125,687162.6875,0.0
1763590783.2610705,252273.421875,242494.171875,5430.4013671875,652205.0625,685595.8125,629497.8125,687393.75,687177.875,0.0
1763590783.263342,252265.90625,242476.734375,5411.6259765625,652163.6875,685637.5,629638.6875,687439.125,687205.25,0.0
1763590783.2655673,252266.53125,242494.0,5428.970703125,652130.75,685637.0,629742.0,687450.3125,687215.9375,0.0
1763590783.2682605,252238.46875,242504.1875,5435.67626953125,652058.6875,685577.5,629744.625,687352.1875,687096.5,0.0
1763590783.2708576,252289.515625,242507.046875,5439.52099609375,652070.9375,685635.25,629878.375,687392.0,687106.8125,0.0
1763590783.2709072,252308.921875,242508.296875,5438.984375,652051.1875,685698.25,630047.5,687465.8125,687154.4375,0.0
1763590783.2733457,252306.40625,242516.265625,5441.66650390625,652011.4375,685686.4375,630140.75,687467.5625,687150.5625,0.0
1763590783.2871919,252278.25,242523.5,5445.24267578125,651941.9375,685583.75,630156.9375,687380.1875,687047.0625,0.0
1763590783.2872524,252312.84375,242526.359375,5446.67333984375,651936.75,685596.25,630265.75,687388.25,687026.3125,0.0
1763590783.3233984,252342.359375,242532.53125,5450.607421875,651926.5625,685674.75,630437.0625,687464.4375,687078.375,0.0
1763590783.3234472,252344.859375,242538.609375,5456.3291015625,651893.8125,685684.125,630544.0625,687480.5,687088.75,0.0
1763590783.3234563,252299.890625,242535.921875,5450.607421875,651806.3125,685599.3125,630545.125,687382.4375,686893.1875,0.0
1763590783.3258796,252286.75,242511.96875,5425.03662109375,651758.375,685564.125,630570.125,687311.625,686846.25,0.0
1763590783.3259292,252301.765625,242497.578125,5409.47998046875,651736.5,685607.0,630709.5625,687358.75,687249.8125,0.0
1763590783.3281393,252310.53125,242507.140625,5413.86083984375,651711.125,685625.875,630826.0625,687382.1875,687486.375,0.0
1763590783.3371253,252287.8125,242521.0,5425.48388671875,651652.5625,685573.875,630848.75,687305.6875,687415.5,0.0
1763590783.3397734,252283.96875,242517.875,5422.17578125,651615.8125,685563.1875,630870.875,687227.75,687315.125,0.0
1763590783.341816,252327.96875,242515.453125,5418.33154296875,651621.4375,685633.1875,631037.6875,687302.25,687368.75,0.0
1763590783.3469515,252336.90625,242520.546875,5421.90771484375,651595.25,685668.9375,631171.5625,687340.125,687398.9375,0.0
1763590783.3498316,252316.421875,242531.375,5433.88818359375,651540.0,685615.1875,631218.1875,687287.75,687348.1875,0.0
1763590783.3519597,252316.421875,242551.3125,5453.5576171875,651501.625,685564.0,631240.1875,687205.375,687243.125,0.0
1763590783.3545935,252355.40625,242546.921875,5447.2099609375,651502.0,685617.875,631381.4375,687250.375,687266.0,0.0
1763590783.357138,252364.625,242548.984375,5446.04736328125,651474.0,685660.6875,631519.0625,687290.625,687293.125,0.0
1763590783.3594007,252344.6875,242552.109375,5447.74609375,651420.875,685633.0625,631578.9375,687256.5625,687259.6875,0.0
1763590783.3619068,252319.375,242558.1875,5452.7529296875,651354.5625,685574.0625,631573.0625,687146.8125,687129.375,0.0
1763590783.3641756,252361.84375,242559.265625,5452.84228515625,651360.0,685607.0,631700.9375,687176.1875,687136.75,0.0
1763590783.3748527,252375.609375,242560.25,5449.62353515625,651341.75,685664.9375,631852.1875,687228.9375,687174.125,0.0
1763590783.3767877,252361.671875,242562.84375,5448.0146484375,651296.8125,685646.5625,631933.75,687213.0625,687162.0625,0.0
1763590783.37924,252334.578125,242576.703125,5460.26318359375,651229.625,685570.125,631942.0625,687113.0625,687046.0625,0.0
1763590783.379258,252368.546875,242578.21875,5463.9287109375,651231.8125,685598.25,632049.875,687121.5625,687030.5,0.0
1763590783.3817964,252380.890625,242566.421875,5452.931640625,651207.3125,685667.3125,632212.0,687185.0,687073.25,0.0
1763590783.3818119,252375.4375,242565.96875,5453.64697265625,651165.8125,685675.125,632319.625,687195.75,687079.6875,0.0
1763590783.3842506,252339.765625,242574.109375,5459.45849609375,651091.25,685587.375,632331.0,687100.1875,686885.75,0.0
1763590783.3868675,252346.203125,242551.125,5437.822265625,651067.75,685587.3125,632402.9375,687074.625,686864.5,0.0
1763590783.3895955,252360.765625,242536.828125,5423.06982421875,651044.625,685662.25,632566.625,687146.125,687288.25,0.0
1763590783.391924,252363.984375,242540.84375,5421.5498046875,651012.625,685696.5,632695.75,687182.3125,687482.375,0.0
1763590783.428429,252332.25,242548.265625,5421.10302734375,650940.9375,685612.4375,632743.5,687127.4375,687416.5,0.0
1763590783.428502,252348.609375,242553.546875,5424.7685546875,650922.0,685593.0625,632842.125,687122.25,687378.5625,0.0
1763590783.432263,252374.8125,242547.640625,5420.8349609375,650912.875,685700.875,633029.0,687214.3125,687441.375,0.0
1763590783.4323335,252383.296875,242553.8125,5425.93115234375,650886.375,685769.5,633189.5625,687282.9375,687497.5625,0.0
1763590783.4323592,252362.46875,242568.828125,5437.64306640625,650825.0625,685723.5,633264.375,687262.1875,687466.9375,0.0
1763590783.4323776,252359.796875,242573.921875,5438.8056640625,650789.5,685666.625,633334.75,687228.75,687401.625,0.0
1763590783.4558883,252392.421875,242565.34375,5430.22265625,650790.1875,685776.25,633524.3125,687324.0625,687466.75,0.0
1763590783.45594,252388.9375,242554.265625,5416.90087890625,650755.875,685845.1875,633684.0625,687390.75,687516.5625,0.0
1763590783.45595,252355.765625,242551.21875,5407.87060546875,650688.625,685805.1875,633760.3125,687370.5625,687490.0,0.0
1763590783.4559567,252345.03125,242563.015625,5412.07275390625,650641.625,685724.8125,633816.5625,687319.6875,687408.5625,0.0
1763590783.472103,252387.5,242557.75,5402.7744140625,650648.25,685838.25,634011.9375,687419.8125,687477.3125,0.0
1763590783.477035,252382.140625,242550.0625,5393.833984375,650615.0625,685920.0,634182.3125,687496.875,687530.6875,0.0
1763590783.47975,252363.1875,242555.875,5398.93017578125,650566.5,685914.0,634285.4375,687505.375,687530.8125,0.0
1763590783.4822147,252339.9375,242565.25,5409.92724609375,650509.0,685807.3125,634321.875,687431.3125,687427.125,0.0
1763590783.4822893,252385.8125,242557.65625,5406.9765625,650523.125,685891.8125,634498.5625,687506.4375,687469.3125,0.0
1763590783.4843123,252392.875,242557.390625,5401.9697265625,650493.625,685978.4375,634673.875,687582.0,687517.9375,0.0
1763590783.4899657,252378.65625,242558.28125,5399.376953125,650452.875,685986.1875,634787.875,687597.1875,687524.25,0.0
1763590783.4900656,252351.03125,242576.703125,5410.73193359375,650386.875,685886.125,634832.3125,687528.3125,687429.875,0.0
1763590783.4917188,252387.5,242581.703125,5410.64208984375,650387.875,685925.0,634975.4375,687561.875,687428.9375,0.0
1763590783.494597,252403.15625,242582.953125,5404.92041015625,650368.125,686018.8125,635158.5625,687640.8125,687477.8125,0.0
1763590783.496869,252391.53125,242580.71875,5399.1982421875,650326.1875,686037.75,635279.0625,687661.125,687486.5625,0.0
1763590783.501659,252350.40625,242586.09375,5401.791015625,650243.5625,685925.6875,635308.9375,687577.9375,687380.4375,0.0
1763590783.5075288,252371.59375,242582.15625,5400.8076171875,650228.0,685915.0625,635412.8125,687570.0,687336.625,0.0
1763590783.5119145,252395.375,242581.609375,5400.53955078125,650212.8125,686008.9375,635592.5625,687644.5625,687378.3125,0.0
1763590783.518473,252394.921875,242587.96875,5401.52294921875,650183.125,686035.25,635718.125,687667.25,687387.625,0.0
1763590783.5208611,252360.234375,242596.453125,5402.953125,650112.4375,685931.8125,635751.4375,687588.25,687290.6875,0.0
1763590783.523445,252373.921875,242601.015625,5404.29443359375,650092.0,685877.6875,635825.875,687544.6875,687209.6875,0.0
1763590783.523528,252400.296875,242593.859375,5395.6220703125,650081.8125,685955.3125,635991.8125,687599.5,687231.0625,0.0
1763590783.5258007,252401.984375,242594.578125,5393.38671875,650047.4375,685979.8125,636118.0625,687617.1875,687231.625,0.0
1763590783.5285156,252371.59375,242601.015625,5395.53271484375,649976.4375,685889.9375,636159.3125,687544.8125,687146.1875,0.0
1763590783.5307024,252374.28125,242613.359375,5407.87060546875,649947.1875,685794.1875,636203.0,687466.1875,687032.5625,0.0
1763590783.5307884,252402.890625,242597.796875,5391.33056640625,649936.375,685855.1875,636353.8125,687505.375,687037.9375,0.0
1763590783.5331533,252403.15625,242590.28125,5380.6015625,649898.625,685895.4375,636492.25,687535.5,687046.5,0.0
1763590783.5332067,252375.171875,242594.765625,5380.958984375,649834.375,685823.0,636540.1875,687474.9375,686889.6875,0.0
1763590783.5384486,252356.578125,242601.640625,5383.9990234375,649779.125,685685.3125,636541.4375,687360.625,686773.75,0.0
1763590783.5405862,252382.046875,242581.4375,5361.6474609375,649766.0625,685726.625,636670.0,687383.25,687080.875,0.0
1763590783.540634,252378.390625,242568.203125,5345.55419921875,649725.25,685754.3125,636793.25,687398.4375,687438.375,0.0
1763590783.5435765,252369.796875,242578.3125,5351.0078125,649684.125,685718.3125,636873.375,687368.9375,687468.4375,0.0
1763590783.5467784,252344.40625,242589.578125,5360.12744140625,649622.75,685587.3125,636887.875,687259.875,687329.875,0.0
1763590783.5807943,252386.875,242588.765625,5360.75341796875,649631.6875,685621.125,637016.0625,687276.1875,687311.625,0.0
1763590783.5808449,252396.0,242584.921875,5356.8193359375,649607.0,685672.3125,637163.625,687313.75,687321.0,0.0
1763590783.5833616,252387.421875,242589.9375,5360.216796875,649567.8125,685651.125,637244.75,687288.875,687286.75,0.0
1763590783.5834088,252353.078125,242604.6875,5371.92919921875,649501.3125,685582.3125,637233.0,687163.8125,687137.0625,0.0
1763590783.5858114,252384.015625,242599.9375,5365.40234375,649501.3125,685603.875,637326.5625,687151.5,687090.0625,0.0
1763590783.5880704,252402.796875,242597.4375,5356.28271484375,649477.5,685657.125,637483.0625,687202.875,687110.6875,0.0
1763590783.5908551,252400.296875,242604.6875,5357.53466796875,649443.0,685657.5,637582.1875,687201.375,687092.3125,0.0
1763590783.5933447,252345.9375,242596.71875,5342.15673828125,649349.875,685583.375,637571.5,687103.3125,686853.25,0.0
1763590783.5955431,252344.328125,242570.265625,5314.17236328125,649309.5625,685583.1875,637615.1875,687103.625,686839.25,0.0
1763590783.5984843,252356.84375,242553.453125,5297.18505859375,649283.25,685626.125,637763.3125,687150.4375,687236.875,0.0
1763590783.6008928,252359.609375,242559.4375,5302.8173828125,649257.25,685639.4375,637876.25,687162.5,687465.1875,0.0
1763590783.6034458,252331.0,242571.25,5313.9931640625,649196.4375,685588.1875,637902.125,687103.8125,687376.8125,0.0
1763590783.6058724,252340.75,242571.78125,5315.2451171875,649170.6875,685578.9375,637948.9375,687096.5,687284.5,0.0
1763590783.605924,252370.703125,242562.390625,5307.10888671875,649159.3125,685639.4375,638113.4375,687157.9375,687314.5,0.0
1763590783.6080918,252372.578125,242564.1875,5305.2314453125,649132.875,685669.8125,638242.0,687186.875,687325.8125,0.0
1763590783.61448,252349.953125,242575.453125,5311.400390625,649079.875,685617.375,638294.6875,687136.375,687263.0625,0.0
1763590783.6145532,252349.234375,242584.75,5307.2880859375,649035.0625,685573.0,638334.375,687067.5625,687160.9375,0.0
1763590783.6506903,252381.96875,242575.53125,5289.40625,649027.4375,685632.625,638489.75,687123.3125,687183.5,0.0
1763590783.6507747,252374.90625,242565.96875,5278.23046875,648988.5625,685666.25,638617.0625,687154.0,687193.0625,0.0
1763590783.6532297,252356.03125,242579.03125,5287.439453125,648936.375,685623.3125,638676.4375,687113.75,687143.875,0.0
1763590783.653303,252346.296875,242590.109375,5296.55908203125,648893.0,685565.3125,638709.5625,687039.75,687037.75,0.0
1763590783.6558585,252383.296875,242579.109375,5283.59521484375,648891.5625,685629.625,638869.0625,687099.375,687064.375,0.0
1763590783.658146,252392.515625,242577.765625,5279.92919921875,648860.6875,685684.75,639018.375,687149.4375,687090.4375,0.0
1763590783.6606026,252394.125,242599.234375,5296.73779296875,648831.0,685678.0,639116.625,687151.3125,687070.0625,0.0
1763590783.6633797,252352.546875,242593.953125,5288.244140625,648755.5,685586.9375,639118.3125,687093.375,686826.9375,0.0
1763590783.6659117,252363.1875,242562.03125,5256.14697265625,648732.5,685616.0,639226.5,687143.625,686949.4375,0.0
1763590783.668186,252362.03125,242549.25,5240.5009765625,648701.5,685673.5625,639376.625,687194.5,687367.25,0.0
1763590783.6682372,252350.671875,242553.625,5239.0703125,648660.8125,685664.75,639468.9375,687191.5625,687481.6875,0.0
1763590783.6709504,252313.203125,242561.046875,5240.76904296875,648586.5625,685575.4375,639481.375,687096.875,687362.25,0.0
1763590783.6731176,252353.984375,242564.71875,5241.39501953125,648593.0,685616.375,639612.125,687126.625,687356.875,0.0
1763590783.6732008,252380.625,242567.765625,5240.41162109375,648579.0,685708.875,639795.5625,687213.1875,687413.25,0.0
1763590783.6759348,252375.34375,242571.328125,5243.80908203125,648542.25,685718.375,639903.625,687225.5,687415.25,0.0
1763590783.681948,252347.8125,242582.78125,5254.4482421875,648478.4375,685612.625,639935.5,687151.0625,687321.1875,0.0
1763590783.682001,252372.9375,242588.59375,5260.17041015625,648469.125,685598.3125,640035.625,687144.0,687281.75,0.0
1763590783.715832,252407.4375,242592.078125,5260.6171875,648463.125,685701.5625,640221.75,687230.375,687337.4375,0.0
1763590783.715882,252402.265625,242590.46875,5255.52099609375,648423.875,685734.125,640349.0,687264.0625,687357.125,0.0
1763590783.7205923,252357.28125,242587.15625,5247.02734375,648340.625,685631.1875,640376.25,687187.5,687266.375,0.0
1763590783.7206433,252363.015625,242588.234375,5244.52392578125,648315.875,685576.875,640444.9375,687148.0625,687194.375,0.0
1763590783.7233925,252394.65625,242583.859375,5236.56689453125,648311.1875,685676.0625,640623.75,687228.375,687245.0,0.0
1763590783.7255373,252390.453125,242582.953125,5231.11328125,648277.875,685718.5625,640757.9375,687266.8125,687268.625,0.0
1763590783.728064,252358.71875,242585.1875,5229.3251953125,648209.5,685648.8125,640804.625,687214.0625,687206.75,0.0
1763590783.7306657,252361.125,242596.375,5240.232421875,648175.875,685581.9375,640854.0625,687155.5,687117.875,0.0
1763590783.7384946,252401.09375,242589.125,5231.11328125,648179.6875,685675.1875,641028.3125,687233.375,687166.0625,0.0
1763590783.743183,252400.5625,242588.859375,5225.48046875,648141.6875,685726.875,641170.5625,687279.1875,687193.3125,0.0
1763590783.748,252388.84375,242608.34375,5236.65625,648096.3125,685700.25,641251.8125,687265.125,687173.9375,0.0
1763590783.7505338,252367.65625,242620.515625,5245.865234375,648039.875,685596.25,641269.4375,687172.75,687055.4375,0.0
1763590783.7531116,252401.71875,242602.625,5229.6826171875,648038.1875,685661.5,641418.75,687221.25,687076.375,0.0
1763590783.7561493,252406.28125,242594.84375,5217.7021484375,648000.375,685731.0625,641575.5625,687281.5,687116.625,0.0
1763590783.761263,252384.90625,242588.765625,5206.0791015625,647942.125,685709.0625,641656.1875,687267.0625,687087.625,0.0
1763590783.7613156,252352.375,242591.265625,5206.8837890625,647873.6875,685596.0625,641665.9375,687170.1875,686864.75,0.0
1763590783.7685678,252363.984375,242565.171875,5179.2568359375,647851.125,685608.25,641761.625,687171.5,686982.9375,0.0
1763590783.7705967,252369.890625,242554.265625,5163.87890625,647822.875,685679.25,641915.375,687233.375,687402.4375,0.0
1763590783.773569,252373.640625,242571.78125,5176.84326171875,647796.0625,685698.625,642031.8125,687255.625,687519.3125,0.0
