timestamps,Fz,C3,Cz,C4,Pz,PO7,Oz,PO8,stim
1772752904.347776,707213.4375,432296.09375,640780.1875,624160.125,707611.5,256811.8125,707968.8125,316663.09375,0.0
1772752904.3563948,707212.625,432242.0,640556.9375,624010.875,707610.0625,256793.484375,707967.5625,316587.53125,0.0
1772752904.359715,707214.5,432199.25,640341.8125,623869.75,707612.125,256783.640625,707969.4375,316519.5,0.0
1772752904.359766,707214.25,432146.3125,640121.0,623726.625,707612.5625,256773.09375,707969.5625,316446.8125,0.0
1772752904.3663397,707214.5,432091.78125,639895.6875,623580.5,707612.4375,256761.03125,707969.4375,316371.78125,0.0
1772752904.371629,707216.0,432049.5,639678.625,623438.125,707613.875,256754.140625,707970.875,316303.40625,0.0
1772752904.374048,707218.4375,431994.25,639458.375,623292.1875,707616.125,256744.046875,707973.3125,316231.0625,0.0
1772752904.37654,707220.0625,431938.90625,639236.9375,623146.4375,707617.8125,256730.8125,707975.0625,316157.46875,0.0
1772752904.3802867,707218.0,431885.6875,639014.75,622999.8125,707615.375,256716.40625,707972.9375,316084.4375,0.0
1772752904.3890228,707218.0,431839.46875,638797.25,622856.25,707615.25,256706.125,707973.0625,316016.5,0.0
1772752904.3921032,707220.125,431784.03125,638573.1875,622708.8125,707618.1875,256692.453125,707975.375,315943.96875,0.0
1772752904.392131,707219.4375,431728.53125,638348.0,622559.5,707617.375,256675.734375,707974.375,315867.625,0.0
1772752904.4028983,707219.5,431680.0625,638129.0,622419.75,707617.3125,256663.75,707974.625,315797.4375,0.0
1772752904.4059389,707219.3125,431635.625,637912.125,622280.75,707616.8125,256651.953125,707974.1875,315728.59375,0.0
1772752904.4059756,707220.25,431584.125,637691.8125,622137.5625,707617.9375,256639.4375,707974.9375,315655.90625,0.0
1772752904.4080677,707222.3125,431530.125,637467.9375,621992.375,707619.6875,256625.578125,707977.0625,315583.125,0.0
1772752904.416716,707224.6875,431484.625,637250.3125,621852.5625,707622.125,256612.34375,707979.375,315514.375,0.0
1772752904.4196167,707225.5625,431436.625,637033.3125,621713.1875,707623.0,256600.625,707980.25,315447.875,0.0
1772752904.4196436,707225.5625,431379.375,636809.5625,621567.5625,707622.75,256583.90625,707980.0,315376.6875,0.0
1772752904.4277923,707225.875,431328.59375,636583.375,621419.9375,707623.0,256566.828125,707980.875,315301.59375,0.0
1772752904.43466,707226.125,431287.5625,636366.0625,621280.4375,707623.8125,256557.265625,707981.0625,315234.71875,0.0
1772752904.4346929,707225.9375,431233.65625,636146.6875,621139.0,707624.0,256546.984375,707980.875,315167.375,0.0
1772752904.4595952,707226.1875,431181.625,635925.5625,620994.4375,707624.0625,256532.59375,707981.375,315094.625,0.0
1772752904.459628,707227.125,431137.53125,635705.1875,620850.875,707624.875,256518.90625,707982.0625,315021.75,0.0
1772752904.461351,707227.3125,431084.96875,635484.0625,620708.0625,707624.875,256506.3125,707982.0625,314952.375,0.0
1772752904.4640532,707229.25,431036.15625,635268.375,620567.6875,707627.0,256495.671875,707984.1875,314885.9375,0.0
1772752904.4666495,707228.8125,430986.28125,635048.25,620425.375,707626.5,256482.875,707984.0,314816.28125,0.0
1772752904.4703307,707227.375,430938.15625,634825.6875,620283.0,707624.8125,256469.5625,707982.25,314744.6875,0.0
1772752904.4763503,707227.625,430887.46875,634605.6875,620142.5,707625.3125,256454.359375,707982.5,314676.09375,0.0
1772752904.4790945,707229.25,430839.375,634389.3125,620005.0625,707626.6875,256443.09375,707984.0,314609.59375,0.0
1772752904.4813087,707230.9375,430787.4375,634171.4375,619867.4375,707628.1875,256430.84375,707985.8125,314540.28125,0.0
1772752904.4863124,707230.0,430731.8125,633945.8125,619725.3125,707627.5,256414.578125,707984.625,314465.625,0.0
1772752904.4888625,707231.6875,430673.25,633722.875,619586.1875,707629.1875,256402.0625,707986.625,314394.375,0.0
1772752904.4915621,707230.0,430619.875,633500.875,619446.25,707627.375,256387.3125,707984.75,314322.40625,0.0
1772752904.4949849,707230.25,430568.5625,633278.4375,619306.8125,707627.5625,256372.109375,707984.75,314250.875,0.0
1772752904.4950175,707230.5,430522.4375,633059.625,619169.25,707627.8125,256360.125,707985.375,314182.46875,0.0
1772752904.4950292,707232.625,430471.90625,632839.1875,619031.0625,707630.0,256349.3125,707987.4375,314114.0,0.0
1772752904.4984388,707234.1875,430424.0625,632622.25,618895.3125,707631.25,256337.953125,707988.875,314048.90625,0.0
1772752904.498472,707233.375,430371.6875,632401.625,618755.75,707630.625,256324.359375,707988.25,313979.0,0.0
1772752904.5000849,707232.75,430319.90625,632179.5,618616.5625,707629.8125,256308.53125,707987.25,313905.84375,0.0
1772752904.5141702,707233.75,430268.25,631960.1875,618480.3125,707630.8125,256293.96875,707988.25,313836.9375,0.0
1772752904.5163198,707237.75,430220.84375,631743.3125,618348.5,707634.625,256284.9375,707992.375,313772.09375,0.0
1772752904.51991,707238.0,430173.28125,631524.25,618211.5625,707634.4375,256271.96875,707992.5,313704.59375,0.0
1772752904.519962,707235.25,430128.84375,631304.125,618073.25,707631.75,256256.328125,707989.6875,313635.125,0.0
1772752904.5213137,707235.4375,430079.875,631083.5,617936.25,707632.125,256242.90625,707989.6875,313563.34375,0.0
1772752904.5301232,707237.125,430027.8125,630863.5625,617799.8125,707633.5625,256227.09375,707991.375,313492.0,0.0
1772752904.5369737,707238.625,429975.96875,630646.25,617666.375,707635.1875,256214.65625,707992.8125,313425.65625,0.0
1772752904.5370412,707238.625,429922.3125,630426.0,617529.9375,707635.8125,256201.78125,707993.3125,313357.25,0.0
1772752904.538891,707239.875,429878.25,630205.5,617393.5,707637.0625,256191.0625,707994.5,313288.40625,0.0
1772752904.550392,707242.875,429832.28125,629988.9375,617261.875,707640.0,256180.78125,707997.1875,313221.96875,0.0
1772752904.5532165,707244.1875,429781.25,629770.625,617127.3125,707641.0,256168.265625,707998.75,313154.65625,0.0
1772752904.5532572,707243.1875,429727.0625,629550.75,616991.9375,707640.0,256155.734375,707998.0,313088.0625,0.0
1772752904.5552824,707244.625,429678.59375,629331.8125,616857.75,707641.875,256143.9375,707999.4375,313020.375,0.0
1772752904.5638893,707244.625,429632.65625,629113.8125,616725.0,707641.5,256130.4375,707999.125,312951.15625,0.0
1772752904.5671191,707243.125,429583.75,628896.5625,616593.5625,707639.625,256118.015625,707997.875,312884.46875,0.0
1772752904.5671527,707243.9375,429528.5625,628679.3125,616460.875,707640.875,256102.453125,707998.5,312818.125,0.0
1772752904.5690415,707244.4375,429481.46875,628462.5,616327.9375,707641.4375,256088.15625,707998.75,312748.9375,0.0
1772752904.580298,707244.375,429439.78125,628250.4375,616199.0625,707641.4375,256077.15625,707999.125,312682.9375,0.0
1772752904.5828457,707244.4375,429387.125,628034.9375,616070.625,707641.3125,256065.890625,707999.4375,312618.03125,0.0
1772752904.5851164,707244.75,429332.5,627817.4375,615939.625,707641.3125,256050.421875,707999.3125,312552.40625,0.0
1772752904.589038,707246.875,429292.625,627603.75,615809.25,707643.125,256039.515625,708001.3125,312487.59375,0.0
1772752904.5978816,707246.625,429247.5625,627389.5625,615679.1875,707642.9375,256030.484375,708001.0,312421.15625,0.0
1772752904.6008327,707247.5625,429197.59375,627173.0625,615549.0,707644.5625,256016.984375,708002.4375,312354.75,0.0
1772752904.6008632,707248.0,429150.90625,626958.5,615419.625,707644.5625,256004.46875,708002.4375,312291.4375,0.0
1772752904.6053476,707249.1875,429107.65625,626742.5,615291.5,707646.0625,255993.5625,708003.875,312226.25,0.0
1772752904.607644,707250.6875,429066.25,626528.25,615164.5,707647.25,255980.234375,708005.5,312161.71875,0.0
1772752904.6165156,707250.0,429017.0,626312.25,615035.375,707646.625,255966.5625,708004.5,312096.4375,0.0
1772752904.6209345,707248.6875,428963.4375,626095.875,614904.625,707645.625,255951.984375,708003.5,312031.71875,0.0
1772752904.6209674,707249.125,428916.6875,625881.125,614774.5625,707646.25,255938.296875,708004.3125,311964.90625,0.0
1772752904.6229413,707251.1875,428875.8125,625667.1875,614646.4375,707648.0625,255929.1875,708006.3125,311898.9375,0.0
1772752904.6426907,707251.4375,428839.53125,625457.0625,614522.375,707647.9375,255919.0,708006.125,311836.90625,0.0
1772752904.642724,707251.8125,428791.25,625242.1875,614394.5625,707648.5625,255905.046875,708006.375,311772.59375,0.0
1772752904.642733,707254.3125,428741.625,625026.625,614267.625,707651.0,255891.984375,708009.0625,311709.3125,0.0
1772752904.6452944,707256.0625,428696.28125,624811.9375,614139.0625,707652.5,255879.46875,708010.6875,311644.125,0.0
1772752904.647678,707255.1875,428656.59375,624602.75,614015.5625,707651.875,255869.375,708009.75,311583.78125,0.0
1772752904.650051,707255.8125,428614.21875,624391.625,613891.5,707652.5,255859.625,708010.25,311523.875,0.0
1772752904.652809,707258.5625,428573.09375,624180.625,613767.6875,707655.25,255851.40625,708013.375,311463.78125,0.0
1772752904.6615849,707260.4375,428527.65625,623971.0,613643.5,707657.25,255841.296875,708015.0625,311402.1875,0.0
1772752904.6646276,707260.25,428483.6875,623761.3125,613521.5,707657.3125,255834.140625,708015.25,311341.5625,0.0
1772752904.6646593,707262.875,428446.46875,623554.9375,613404.375,707659.1875,255827.53125,708018.1875,311287.21875,0.0
1772752904.6665409,707266.875,428408.5625,623348.9375,613286.375,707662.875,255819.65625,708021.6875,311231.53125,0.0
1772752904.68031,707266.6875,428367.09375,623135.625,613160.0625,707663.0625,255805.890625,708021.3125,311165.34375,0.0
1772752904.6885486,707266.25,428320.59375,622925.0625,613035.75,707662.6875,255795.796875,708020.875,311101.4375,0.0
1772752904.6885996,707266.0625,428266.40625,622710.5,612909.6875,707662.1875,255781.125,708020.875,311036.96875,0.0
1772752904.690092,707263.0625,428213.9375,622490.6875,612775.4375,707658.875,255758.59375,708017.5625,310968.03125,0.0
1772752904.6927793,707257.125,428162.0,622265.0625,612636.5625,707653.125,255732.3125,708011.5625,310891.84375,0.0
1772752904.6951528,707258.0625,428111.75,622047.1875,612505.125,707654.1875,255714.515625,708012.625,310820.78125,0.0
1772752904.6982253,707261.875,428066.25,621839.5,612382.5,707658.3125,255707.453125,708016.75,310761.59375,0.0
1772752904.6982603,707263.5,428027.25,621634.125,612262.0625,707659.5625,255702.71875,708018.0625,310704.375,0.0
1772752904.706555,707263.6875,427981.03125,621427.625,612141.4375,707659.75,255697.796875,708018.5625,310644.75,0.0
1772752904.7091048,707264.5625,427934.90625,621217.5,612016.8125,707661.0,255685.546875,708019.5,310579.5625,0.0
1772752904.718676,707265.9375,427888.59375,621007.75,611894.3125,707662.0625,255672.765625,708020.5,310519.375,0.0
1772752904.7187214,707265.1875,427845.21875,620796.375,611769.125,707661.5625,255660.703125,708019.8125,310458.78125,0.0
1772752904.7202964,707265.5625,427801.40625,620582.375,611642.1875,707662.1875,255644.609375,708020.5,310395.03125,0.0
1772752904.7240083,707267.875,427752.3125,620367.4375,611515.6875,707664.0625,255631.640625,708022.125,310330.65625,0.0
1772752904.7306116,707267.4375,427708.96875,620153.3125,611390.3125,707663.75,255620.734375,708022.0,310264.65625,0.0
1772752904.7306406,707268.0625,427664.53125,619942.5625,611269.125,707664.375,255610.890625,708022.625,310204.0625,0.0
1772752904.7390823,707270.5625,427615.90625,619732.625,611147.125,707666.8125,255601.421875,708025.0625,310142.625,0.0
1772752904.7423508,707270.5,427574.9375,619522.8125,611026.6875,707667.25,255594.09375,708025.3125,310082.09375,0.0
1772752904.7424035,707272.1875,427529.15625,619310.0,610905.375,707668.75,255583.625,708027.3125,310021.65625,0.0
1772752904.7478077,707272.875,427482.125,619097.1875,610782.25,707669.5625,255570.65625,708028.125,309959.15625,0.0
1772752904.7541673,707273.9375,427439.21875,618887.4375,610659.625,707670.6875,255558.5,708028.8125,309896.59375,0.0
1772752904.7635448,707274.125,427388.625,618674.5,610536.75,707670.5,255546.703125,708029.375,309830.875,0.0
1772752904.7635956,707272.625,427348.375,618466.4375,610416.25,707669.3125,255538.125,708027.5625,309769.96875,0.0
1772752904.765758,707274.375,427306.1875,618257.875,610296.25,707671.375,255528.015625,708029.0,309710.625,0.0
1772752904.7657917,707276.125,427257.09375,618042.375,610171.625,707673.1875,255513.0,708031.0625,309645.78125,0.0
1772752904.7742465,707275.6875,427215.625,617829.8125,610048.625,707672.625,255505.03125,708030.8125,309582.5,0.0
1772752904.7784147,707276.125,427173.875,617617.4375,609927.25,707672.625,255495.46875,708031.125,309520.4375,0.0
1772752904.7784488,707276.9375,427120.65625,617403.0625,609805.0625,707673.3125,255481.609375,708031.875,309457.0625,0.0
1772752904.7800965,707277.375,427082.65625,617193.75,609682.1875,707673.875,255471.515625,708032.3125,309396.96875,0.0
1772752904.7971013,707277.0,427036.90625,616980.5,609556.125,707673.625,255459.265625,708032.0625,309334.21875,0.0
1772752904.7971344,707278.4375,426983.96875,616766.3125,609429.3125,707674.5,255442.71875,708033.1875,309266.875,0.0
1772752904.7991357,707277.625,426937.125,616556.625,609307.0625,707674.25,255430.296875,708032.5625,309204.21875,0.0
1772752904.8016303,707276.375,426898.21875,616348.6875,609186.125,707672.6875,255420.015625,708031.125,309144.40625,0.0
1772752904.803884,707276.5625,426852.90625,616139.25,609064.3125,707672.8125,255409.640625,708031.25,309083.15625,0.0
1772752904.8066454,707277.0,426803.28125,615925.3125,608936.75,707673.25,255395.15625,708031.9375,309015.65625,0.0
1772752904.8200555,707277.875,426752.3125,615716.625,608814.6875,707674.25,255382.1875,708032.6875,308954.40625,0.0
1772752904.8288572,707277.375,426704.46875,615509.3125,608693.0,707673.8125,255366.09375,708032.125,308895.125,0.0
1772752904.8289015,707276.375,426664.0625,615303.0625,608571.25,707672.625,255355.546875,708031.25,308837.71875,0.0
1772752904.8289132,707277.25,426623.28125,615092.875,608444.375,707673.3125,255344.828125,708032.0625,308778.09375,0.0
1772752904.8321288,707279.6875,426579.9375,614883.375,608317.3125,707676.0,255332.65625,708034.5625,308718.8125,0.0
1772752904.83216,707278.4375,426532.0,614673.0625,608190.0,707674.9375,255320.6875,708033.1875,308659.625,0.0
1772752904.834046,707278.6875,426486.25,614463.1875,608060.3125,707674.9375,255309.59375,708033.375,308600.4375,0.0
1772752904.837775,707279.5625,426437.25,614251.5625,607924.75,707675.8125,255296.71875,708034.75,308537.78125,0.0
1772752904.841396,707280.125,426391.65625,614038.5625,607789.9375,707676.375,255283.671875,708035.0625,308476.09375,0.0
1772752904.845372,707280.375,426345.0625,613825.6875,607651.9375,707676.9375,255271.328125,708035.5,308415.03125,0.0
1772752904.8587785,707278.875,426300.1875,613614.25,607513.1875,707675.125,255256.9375,708033.9375,308355.21875,0.0
1772752904.8636618,707280.6875,426256.375,613404.75,607376.75,707676.625,255246.46875,708035.4375,308297.28125,0.0
1772752904.863674,707281.3125,426213.28125,613196.0,607240.3125,707677.5625,255238.96875,708036.0625,308239.0625,0.0
1772752904.86368,707281.0,426171.34375,612988.375,607101.1875,707677.375,255228.140625,708035.6875,308179.96875,0.0
1772752904.8675134,707282.8125,426127.96875,612782.9375,606963.25,707678.875,255218.84375,708037.375,308124.90625,0.0
1772752904.8712578,707283.375,426079.78125,612571.875,606817.625,707679.125,255204.453125,708037.875,308062.5,0.0
1772752904.8855891,707283.1875,426035.90625,612366.1875,606679.5625,707679.0625,255192.921875,708038.1875,308005.34375,0.0
1772752904.8856056,707283.5,425991.09375,612161.375,606543.125,707679.75,255181.296875,708038.75,307949.75,0.0
1772752904.8907552,707284.5,425950.40625,611955.0,606403.5625,707680.6875,255169.5,708039.4375,307891.375,0.0
1772752904.890772,707285.125,425910.375,611749.0625,606264.5625,707681.375,255157.421875,708040.0,307832.625,0.0
1772752904.8982167,707286.375,425869.9375,611542.5,606125.9375,707682.4375,255144.28125,708041.0,307773.53125,0.0
1772752904.898234,707287.125,425823.1875,611335.8125,605987.1875,707682.9375,255130.609375,708041.6875,307716.03125,0.0
1772752904.9037535,707285.9375,425773.125,611128.5625,605846.9375,707682.375,255116.828125,708040.8125,307657.28125,0.0
1772752904.908164,707285.5,425722.15625,610920.25,605707.5625,707682.0,255103.6875,708040.1875,307597.9375,0.0
1772752904.9081807,707286.625,425683.09375,610715.375,605570.8125,707683.0,255092.96875,708041.5,307540.875,0.0
1772752904.9218538,707287.8125,425641.0625,610509.25,605434.25,707684.25,255080.265625,708042.9375,307483.5625,0.0
1772752904.9218707,707288.0625,425597.875,610305.8125,605300.5625,707684.4375,255068.546875,708043.5625,307428.5,0.0
1772752904.9247377,707288.875,425559.875,610106.0,605167.9375,707685.25,255061.9375,708044.375,307375.21875,0.0
1772752904.9247868,707289.9375,425516.71875,609900.5625,605030.8125,707686.3125,255050.3125,708045.4375,307316.90625,0.0
1772752904.9332528,707288.875,425477.1875,609696.875,604895.875,707684.9375,255037.171875,708044.125,307260.15625,0.0
1772752904.9332893,707289.5,425435.875,609493.75,604763.375,707685.4375,255025.640625,708044.75,307204.4375,0.0
1772752904.9420977,707289.5,425388.84375,609287.375,604626.1875,707685.875,255013.65625,708045.0,307147.59375,0.0
1772752904.9421327,707289.0625,425342.0,609084.1875,604490.875,707685.5625,255004.890625,708044.625,307088.9375,0.0
1772752904.9440503,707289.9375,425307.75,608883.8125,604359.375,707686.375,254993.71875,708045.375,307031.4375,0.0
1772752904.9463277,707290.875,425263.15625,608679.0,604225.875,707686.9375,254979.421875,708046.0,306973.34375,0.0
1772752904.9600706,707288.625,425224.15625,608476.625,604092.9375,707684.9375,254966.625,708043.9375,306916.09375,0.0
1772752904.9658632,707290.25,425182.875,608275.375,603961.4375,707686.5,254958.84375,708045.75,306860.3125,0.0
1772752904.9658997,707290.9375,425132.96875,608067.8125,603826.0625,707687.1875,254946.0625,708046.375,306799.25,0.0
1772752904.9675653,707292.3125,425098.625,607867.25,603695.5,707688.6875,254937.578125,708047.6875,306742.40625,0.0
1772752904.9702873,707291.75,425060.65625,607665.125,603564.4375,707687.8125,254925.234375,708047.0625,306682.75,0.0
1772752904.9726024,707291.8125,425015.84375,607461.25,603428.125,707687.625,254910.65625,708046.875,306623.75,0.0
1772752904.9818869,707293.625,424972.03125,607261.0,603296.9375,707689.875,254901.09375,708048.875,306568.125,0.0
1772752904.9819152,707293.5625,424922.5,607057.25,603165.3125,707690.0,254888.84375,708049.1875,306509.65625,0.0
1772752904.9840841,707293.375,424879.78125,606857.0625,603036.875,707689.5,254875.96875,708048.9375,306454.15625,0.0
1772752904.987893,707293.1875,424834.71875,606653.5625,602902.8125,707689.25,254859.609375,708048.5625,306394.0625,0.0
1772752904.9998858,707292.75,424793.9375,606448.75,602768.75,707688.6875,254844.234375,708048.0625,306333.53125,0.0
1772752904.9999347,707293.1875,424751.84375,606246.75,602641.75,707689.4375,254832.421875,708048.5,306278.1875,0.0
1772752905.0013144,707296.0625,424709.0,606048.6875,602517.6875,707692.125,254822.234375,708051.625,306226.34375,0.0
1772752905.0053988,707294.25,424668.59375,605847.75,602389.0,707690.3125,254808.640625,708049.375,306168.40625,0.0
1772752905.0094795,707295.0,424626.65625,605646.125,602262.5,707691.0625,254796.3125,708050.0,306111.09375,0.0
1772752905.009527,707297.5625,424587.78125,605448.8125,602139.125,707693.375,254790.140625,708052.875,306058.78125,0.0
1772752905.017868,707298.125,424532.96875,605242.1875,602005.9375,707693.875,254776.28125,708053.125,306001.03125,0.0
1772752905.0222604,707298.8125,424491.65625,605040.5625,601876.6875,707694.8125,254766.0,708053.875,305946.5,0.0
1772752905.022313,707300.4375,424448.125,604835.0,601745.75,707696.75,254754.28125,708055.9375,305887.84375,0.0
1772752905.0301192,707300.6875,424407.96875,604630.1875,601615.625,707696.75,254740.421875,708056.0625,305828.21875,0.0
1772752905.0332212,707302.125,424369.53125,604433.3125,601492.375,707697.9375,254731.9375,708057.4375,305776.0,0.0
1772752905.0332527,707302.0625,424323.84375,604234.125,601366.8125,707697.75,254719.234375,708057.1875,305721.625,0.0
1772752905.0365832,707301.4375,424283.59375,604035.6875,601242.75,707697.3125,254709.046875,708056.25,305665.5625,0.0
1772752905.0452857,707302.5625,424248.03125,603840.75,601121.9375,707698.375,254702.25,708057.625,305614.78125,0.0
1772752905.051322,707303.0,424198.21875,603636.4375,600992.5625,707698.5625,254690.0,708057.875,305557.84375,0.0
1772752905.0542383,707302.5625,424155.5625,603434.625,600866.0625,707698.4375,254679.71875,708057.9375,305499.09375,0.0
1772752905.0565484,707302.5625,424118.8125,603235.25,600742.6875,707698.4375,254668.453125,708057.5,305443.40625,0.0
1772752905.065065,707302.125,424071.625,603032.75,600617.125,707697.9375,254655.578125,708057.1875,305385.71875,0.0
1772752905.0711176,707303.625,424025.40625,602831.3125,600493.5,707699.0625,254643.78125,708058.5,305330.03125,0.0
1772752905.0711699,707304.25,423980.96875,602631.5625,600370.375,707699.8125,254630.8125,708058.75,305273.78125,0.0
1772752905.0728545,707305.0,423941.96875,602434.6875,600250.25,707700.8125,254621.34375,708059.75,305220.9375,0.0
1772752905.0976183,707304.25,423904.4375,602233.875,600125.75,707700.25,254608.375,708059.125,305163.71875,0.0
1772752905.0998857,707304.375,423857.59375,602031.375,600000.0625,707700.0,254595.234375,708058.9375,305107.5,0.0
1772752905.1075103,707305.4375,423806.09375,601827.25,599874.0625,707700.875,254583.703125,708060.0,305051.25,0.0
1772752905.1100197,707304.0625,423760.125,601624.9375,599748.5625,707699.4375,254570.5625,708058.9375,304994.3125,0.0
1772752905.1125233,707303.9375,423724.0,601425.8125,599624.5625,707699.4375,254560.71875,708059.0625,304939.3125,0.0
1772752905.1150084,707302.9375,423680.71875,601227.6875,599500.75,707698.1875,254550.078125,708057.875,304883.875,0.0
1772752905.1175754,707303.5625,423637.8125,601033.875,599380.9375,707698.8125,254541.140625,708058.125,304832.75,0.0
1772752905.1200254,707305.1875,423593.75,600838.4375,599257.625,707700.5,254530.40625,708059.875,304781.15625,0.0
1772752905.1231935,707305.3125,423551.625,600640.1875,599130.375,707700.9375,254518.96875,708060.1875,304726.625,0.0
1772752905.1232088,707304.5625,423500.03125,600435.9375,598998.4375,707700.4375,254500.640625,708059.875,304664.21875,0.0
1772752905.1249962,707305.0625,423453.1875,600235.9375,598871.9375,707701.25,254488.84375,708060.625,304608.25,0.0
1772752905.1274948,707305.0,423415.03125,600036.5625,598747.625,707701.0625,254475.15625,708060.1875,304550.84375,0.0
1772752905.1305783,707305.0,423368.34375,599833.5625,598620.9375,707701.3125,254459.0625,708060.3125,304492.375,0.0
1772752905.1305876,707304.625,423321.40625,599634.125,598497.5,707700.8125,254444.5,708059.875,304435.6875,0.0
1772752905.1331644,707302.6875,423278.21875,599435.625,598375.8125,707698.4375,254433.578125,708057.625,304380.71875,0.0
1772752905.133175,707303.75,423233.34375,599237.3125,598253.5,707699.6875,254423.21875,708058.875,304327.40625,0.0
1772752905.146568,707303.1875,423186.125,599036.25,598128.875,707699.0625,254411.40625,708058.5,304271.0,0.0
1772752905.149645,707302.9375,423146.15625,598840.0,598007.375,707698.4375,254402.03125,708058.25,304218.25,0.0
1772752905.1496844,707302.9375,423098.78125,598641.0625,597883.6875,707698.4375,254387.984375,708058.25,304164.96875,0.0
1772752905.1515727,707302.9375,423062.03125,598443.5,597760.625,707698.625,254377.609375,708057.9375,304109.90625,0.0
1772752905.1550777,707303.4375,423021.71875,598244.75,597637.75,707699.1875,254369.296875,708058.25,304053.75,0.0
1772752905.1696005,707304.875,422979.78125,598045.875,597513.9375,707700.0,254360.71875,708059.5,303999.03125,0.0
1772752905.1696315,707305.875,422932.40625,597846.875,597389.75,707701.5,254347.9375,708061.1875,303948.4375,0.0
1772752905.1715798,707306.0625,422890.46875,597650.25,597267.4375,707701.75,254336.21875,708061.375,303897.625,0.0
1772752905.174074,707308.125,422852.1875,597456.375,597147.0,707703.9375,254327.8125,708063.125,303845.4375,0.0
1772752905.1790493,707309.25,422814.1875,597261.6875,597028.0,707704.625,254317.4375,708064.0625,303792.3125,0.0
1772752905.181588,707309.1875,422775.9375,597066.375,596910.0,707704.4375,254306.984375,708063.75,303740.65625,0.0
1772752905.1908717,707308.8125,422729.34375,596867.0625,596786.9375,707704.625,254292.671875,708063.875,303685.03125,0.0
1772752905.1909,707309.875,422684.90625,596669.625,596664.0,707706.125,254280.875,708065.125,303631.5625,0.0
1772752905.1932633,707308.5625,422646.28125,596472.4375,596543.875,707704.625,254267.109375,708063.9375,303577.375,0.0
1772752905.1932943,707308.125,422607.40625,596280.0,596427.5625,707703.8125,254254.59375,708063.125,303526.15625,0.0
1772752905.207949,707307.6875,422568.59375,596088.625,596310.0,707703.0,254242.4375,708062.4375,303472.78125,0.0
1772752905.2106645,707308.5,422527.65625,595898.25,596194.875,707704.625,254231.703125,708063.9375,303421.71875,0.0
1772752905.2106967,707308.625,422478.03125,595702.6875,596075.8125,707704.8125,254218.109375,708063.75,303365.84375,0.0
1772752905.213443,707310.8125,422446.46875,595516.5625,595963.625,707706.625,254210.328125,708065.375,303318.8125,0.0
1772752905.2134762,707312.125,422406.9375,595326.25,595847.5625,707707.6875,254201.03125,708067.0,303268.03125,0.0
1772752905.2243905,707309.375,422358.21875,595129.5,595727.5,707705.25,254187.265625,708064.5625,303211.34375,0.0
1772752905.2390993,707309.4375,422310.3125,594927.375,595604.625,707705.1875,254172.25,708064.75,303154.3125,0.0
1772752905.239151,707310.375,422268.1875,594733.25,595487.8125,707705.6875,254161.609375,708065.1875,303102.71875,0.0
1772752905.2391615,707310.25,422231.28125,594541.0625,595369.5,707706.0,254148.734375,708065.3125,303048.375,0.0
1772752905.2422853,707311.25,422190.40625,594350.4375,595253.1875,707707.0625,254137.375,708066.375,302997.5,0.0
1772752905.242336,707313.5,422151.4375,594161.4375,595140.625,707708.9375,254130.9375,708068.625,302949.125,0.0
1772752905.2441688,707312.3125,422117.09375,593972.4375,595029.5,707707.375,254122.625,708067.5625,302900.21875,0.0
1772752905.2477803,707312.375,422072.46875,593777.9375,594912.5625,707707.6875,254108.59375,708067.4375,302846.75,0.0
1772752905.2518964,707316.3125,422032.78125,593592.375,594802.125,707711.8125,254102.59375,708071.375,302802.75,0.0
1772752905.2519271,707318.75,421991.46875,593403.0,594689.0,707714.1875,254096.15625,708073.875,302755.90625,0.0
1772752905.2650635,707319.0,421952.84375,593212.75,594576.75,707714.75,254085.53125,708074.5,302706.65625,0.0
1772752905.2693508,707320.1875,421912.53125,593022.9375,594464.0625,707715.5625,254072.46875,708075.3125,302656.03125,0.0
1772752905.2693696,707319.3125,421871.0625,592834.4375,594353.75,707714.75,254063.625,708074.3125,302607.6875,0.0
1772752905.275596,707319.3125,421832.25,592640.375,594238.75,707714.75,254049.046875,708074.5,302551.4375,0.0
1772752905.2756124,707320.875,421793.625,592449.9375,594127.25,707716.4375,254041.359375,708076.0,302499.40625,0.0
1772752905.2893476,707319.9375,421751.25,592258.0625,594016.5,707715.625,254033.671875,708075.25,302449.875,0.0
1772752905.2893643,707319.4375,421709.3125,592066.25,593904.5625,707715.0625,254023.828125,708074.625,302402.125,0.0
1772752905.2918947,707318.1875,421667.46875,591870.5625,593788.0,707713.6875,254010.59375,708072.8125,302351.53125,0.0
1772752905.2919128,707320.8125,421626.4375,591677.4375,593673.0,707716.25,254000.234375,708075.5,302300.375,0.0
1772752905.3005898,707321.0625,421590.21875,591487.4375,593559.1875,707716.5,253988.421875,708075.875,302247.09375,0.0
1772752905.3006043,707320.625,421550.15625,591298.0,593446.5625,707716.625,253977.25,708075.875,302198.625,0.0
1772752905.302516,707320.375,421505.90625,591108.375,593336.0,707716.4375,253968.046875,708075.6875,302150.8125,0.0
1772752905.3141067,707320.0,421462.8125,590917.3125,593221.875,707716.1875,253957.578125,708075.5625,302098.40625,0.0
1772752905.3171167,707320.0,421431.53125,590731.0625,593112.0,707716.4375,253949.453125,708075.6875,302050.40625,0.0
1772752905.3171508,707320.1875,421382.34375,590538.3125,592997.5,707716.0,253936.03125,708075.25,301999.0,0.0
1772752905.3190596,707321.5,421342.125,590349.0,592886.125,707717.4375,253926.015625,708076.5625,301950.28125,0.0
1772752905.3303285,707321.25,421305.28125,590157.5,592771.75,707717.25,253913.953125,708076.3125,301897.4375,0.0
1772752905.3334107,707323.75,421265.6875,589971.5625,592664.9375,707719.625,253905.375,708078.5625,301849.25,0.0
1772752905.3334448,707324.5,421215.59375,589781.9375,592553.5625,707720.125,253893.125,708079.0625,301798.28125,0.0
1772752905.3352053,707324.0,421178.40625,589594.25,592442.875,707719.5625,253883.640625,708079.0625,301750.25,0.0
1772752905.3494089,707325.4375,421147.46875,589408.75,592335.5,707721.375,253879.703125,708080.9375,301704.9375,0.0
1772752905.3494377,707327.625,421107.59375,589219.8125,592224.9375,707723.4375,253870.40625,708082.8125,301656.28125,0.0
1772752905.3515608,707328.0625,421059.3125,589030.875,592113.125,707723.6875,253859.859375,708083.0,301607.84375,0.0
1772752905.3557491,707328.875,421021.3125,588847.1875,592004.25,707724.125,253850.65625,708083.25,301560.625,0.0
1772752905.3557866,707329.3125,420990.75,588663.375,591896.9375,707724.6875,253841.171875,708084.0625,301512.34375,0.0
1772752905.3694565,707330.0,420951.125,588475.5,591788.5,707725.375,253830.625,708085.25,301462.5625,0.0
1772752905.3695111,707333.0625,420910.46875,588291.625,591683.25,707728.0625,253824.09375,708087.5625,301417.65625,0.0
1772752905.3712704,707333.125,420868.875,588105.0625,591573.375,707727.875,253815.328125,708087.75,301370.1875,0.0
1772752905.3737917,707333.6875,420833.125,587918.5,591464.0,707728.5,253807.375,708088.375,301321.46875,0.0
1772752905.3762648,707337.5,420802.28125,587735.75,591359.3125,707732.375,253803.4375,708092.1875,301275.96875,0.0
1772752905.3855891,707341.375,420767.3125,587556.0625,591258.5,707736.125,253801.296875,708095.9375,301233.84375,0.0
1772752905.3856037,707344.125,420725.5625,587373.125,591156.625,707738.875,253795.3125,708098.5,301189.40625,0.0
1772752905.3875146,707343.875,420678.4375,587178.9375,591043.1875,707739.0625,253780.46875,708098.625,301135.5,0.0
1772752905.3912835,707339.75,420628.65625,586977.5,590922.3125,707734.75,253759.640625,708094.8125,301071.75,0.0
1772752905.3981533,707335.375,420578.3125,586775.1875,590800.375,707729.9375,253736.203125,708090.0625,301008.1875,0.0
1772752905.3981698,707333.3125,420520.90625,586574.6875,590679.1875,707727.6875,253711.890625,708088.0,300945.78125,0.0
1772752905.4037688,707334.6875,420473.34375,586385.6875,590568.5,707729.375,253698.65625,708089.375,300892.75,0.0
1772752905.4075153,707334.5,420439.375,586204.1875,590465.6875,707729.0625,253692.578125,708089.0625,300846.8125,0.0
1772752905.4140944,707335.1875,420398.96875,586019.5625,590359.75,707730.125,253685.25,708090.4375,300802.46875,0.0
1772752905.4193764,707335.5,420363.46875,585836.75,590254.0625,707730.375,253677.015625,708090.4375,300757.5,0.0
1772752905.4193935,707336.5625,420325.1875,585653.125,590147.5,707731.125,253666.46875,708091.3125,300709.5625,0.0
1772752905.4212632,707336.4375,420284.6875,585468.6875,590038.6875,707731.1875,253656.015625,708091.3125,300658.96875,0.0
1772752905.430025,707335.5,420248.21875,585282.9375,589929.6875,707730.5,253646.625,708090.0,300609.15625,0.0
1772752905.43437,707335.9375,420210.5,585096.8125,589820.875,707730.8125,253635.8125,708090.6875,300559.8125,0.0
1772752905.4343865,707337.1875,420161.9375,584905.6875,589709.5,707732.0,253623.828125,708092.1875,300508.5,0.0
1772752905.445027,707335.625,420126.71875,584716.125,589599.5,707730.3125,253614.171875,708091.0625,300458.34375,0.0
1772752905.4481544,707334.75,420088.28125,584528.1875,589490.5625,707729.25,253602.28125,708090.0,300407.71875,0.0
1772752905.4481761,707337.375,420042.6875,584339.8125,589381.3125,707732.375,253589.140625,708092.375,300356.125,0.0
1772752905.450012,707339.9375,420001.90625,584153.1875,589273.3125,707734.5625,253577.6875,708094.25,300308.125,0.0
1772752905.4562647,707342.0,419965.78125,583969.1875,589165.1875,707736.625,253567.5,708096.875,300261.28125,0.0
1772752905.4625251,707340.9375,419921.09375,583783.1875,589055.9375,707735.75,253556.328125,708095.8125,300211.65625,0.0
1772752905.467069,707341.3125,419878.96875,583598.1875,588950.1875,707735.75,253547.390625,708095.9375,300162.5625,0.0
1772752905.4670851,707341.75,419843.9375,583415.6875,588846.8125,707736.125,253539.78125,708096.5,300116.25,0.0
1772752905.475024,707340.3125,419807.09375,583233.75,588742.5625,707734.75,253531.828125,708095.1875,300070.3125,0.0
1772752905.4793591,707340.75,419772.75,583051.25,588637.875,707735.1875,253522.796875,708095.625,300023.625,0.0
1772752905.4793756,707341.8125,419731.0,582864.0625,588529.9375,707736.375,253508.484375,708096.4375,299973.9375,0.0
1772752905.4875195,707342.6875,419692.28125,582679.9375,588423.9375,707737.4375,253497.9375,708097.75,299927.625,0.0
1772752905.4906,707342.0625,419657.6875,582497.0625,588316.1875,707736.8125,253485.515625,708097.125,299879.34375,0.0
1772752905.4906168,707344.5625,419614.15625,582311.8125,588209.6875,707739.5,253474.421875,708099.5625,299829.4375,0.0
1772752905.4987745,707344.5625,419566.59375,582123.125,588100.1875,707739.6875,253458.609375,708099.4375,299778.84375,0.0
1772752905.5068593,707341.375,419532.96875,581943.3125,587995.75,707736.5625,253448.3125,708096.3125,299734.03125,0.0
1772752905.506876,707342.0625,419496.75,581764.4375,587891.5,707737.0,253443.046875,708096.9375,299692.125,0.0
1772752905.508865,707343.625,419455.71875,581579.875,587782.625,707738.25,253431.515625,708098.1875,299642.84375,0.0
1772752905.5128496,707344.5,419423.1875,581402.25,587679.4375,707739.25,253422.390625,708099.1875,299597.34375,0.0
1772752905.5171013,707343.6875,419379.625,581219.4375,587571.75,707738.5,253411.578125,708098.1875,299549.5,0.0
1772752905.5171328,707344.5,419338.78125,581038.75,587465.375,707739.5,253399.421875,708099.1875,299503.28125,0.0
1772752905.5253105,707347.0,419303.1875,580860.25,587358.625,707741.8125,253389.671875,708101.875,299456.875,0.0
1772752905.5278218,707344.6875,419271.1875,580681.0,587250.375,707739.6875,253378.9375,708099.5625,299409.59375,0.0
1772752905.5316784,707346.1875,419232.28125,580504.0,587144.9375,707741.3125,253369.90625,708101.0,299366.3125,0.0
1772752905.541015,707346.8125,419192.9375,580325.4375,587036.6875,707742.0625,253358.46875,708101.5,299319.03125,0.0
1772752905.5410478,707346.3125,419152.1875,580142.125,586921.3125,707741.3125,253344.96875,708101.0625,299268.5,0.0
1772752905.5427747,707346.125,419109.90625,579957.875,586806.25,707740.5625,253332.265625,708100.4375,299219.78125,0.0
1772752905.551541,707347.875,419074.5,579778.875,586694.3125,707742.0,253321.90625,708102.25,299175.53125,0.0
1772752905.5546064,707349.0625,419040.15625,579600.875,586581.25,707742.875,253313.046875,708103.375,299132.25,0.0
1772752905.554639,707348.1875,418993.5625,579413.6875,586459.9375,707742.0625,253299.015625,708102.3125,299083.0625,0.0
1772752905.5567117,707350.5625,418955.9375,579230.5625,586341.875,707745.125,253288.375,708104.75,299038.5625,0.0
1772752905.5677912,707350.375,418924.28125,579052.1875,586228.0625,707745.125,253280.765625,708104.3125,298996.53125,0.0
1772752905.5711155,707350.5625,418881.625,578869.6875,586108.4375,707744.875,253272.8125,708104.375,298950.40625,0.0
1772752905.5711668,707351.625,418837.28125,578685.0625,585985.25,707745.9375,253261.015625,708105.625,298901.5,0.0
1772752905.572873,707351.8125,418802.875,578503.875,585863.9375,707746.375,253250.375,708106.25,298854.8125,0.0
1772752905.5815828,707353.6875,418769.78125,578329.4375,585747.1875,707748.0,253243.40625,708108.0625,298812.875,0.0
1772752905.5983105,707354.875,418726.5,578149.625,585627.4375,707748.875,253233.203125,708109.3125,298769.875,0.0
1772752905.598344,707355.5625,418687.96875,577971.375,585509.875,707749.8125,253225.25,708110.25,298728.03125,0.0
1772752905.6003053,707356.3125,418658.84375,577793.25,585391.4375,707750.875,253215.765625,708110.6875,298683.78125,0.0
1772752905.6034286,707358.4375,418619.40625,577613.875,585273.0625,707752.625,253203.703125,708112.125,298639.875,0.0
1772752905.6034622,707359.6875,418583.03125,577439.125,585159.0625,707753.8125,253196.015625,708113.5,298599.90625,0.0
1772752905.6053967,707360.125,418547.15625,577261.0,585039.625,707753.875,253186.171875,708113.9375,298555.46875,0.0
1772752905.608864,707360.25,418507.46875,577078.6875,584917.5625,707754.0625,253173.578125,708114.125,298508.625,0.0
1772752905.6132393,707359.3125,418464.375,576900.1875,584799.0625,707753.375,253161.59375,708113.25,298466.25,0.0
1772752905.6132717,707358.8125,418417.78125,576721.6875,584681.625,707753.0,253150.140625,708112.875,298424.5,0.0
1772752905.6188896,707359.625,418381.125,576546.0,584564.6875,707753.8125,253139.15625,708113.9375,298381.78125,0.0
1772752905.6290495,707361.25,418349.125,576368.875,584447.125,707755.4375,253128.875,708115.75,298336.15625,0.0
1772752905.636532,707360.875,418309.53125,576188.3125,584327.0,707755.3125,253119.296875,708115.375,298289.3125,0.0
1772752905.6365652,707360.75,418273.40625,576013.5,584209.1875,707754.875,253111.25,708115.1875,298247.46875,0.0
1772752905.6365745,707360.5,418240.5,575838.5625,584092.4375,707754.625,253100.078125,708114.8125,298204.28125,0.0
1772752905.6409585,707360.25,418205.28125,575658.375,583972.0,707754.625,253084.796875,708114.1875,298156.1875,0.0
1772752905.6410189,707361.375,418166.65625,575482.5,583854.5,707755.5,253073.703125,708115.25,298111.125,0.0
1772752905.6488798,707362.1875,418129.0,575306.125,583738.25,707756.375,253063.15625,708116.25,298065.53125,0.0
1772752905.65342,707361.5,418087.53125,575127.3125,583620.875,707756.0625,253051.625,708115.75,298020.65625,0.0
1772752905.6534567,707361.3125,418053.375,574952.0,583504.75,707755.75,253038.65625,708115.375,297973.8125,0.0
1772752905.6553583,707362.375,418020.8125,574776.8125,583390.1875,707756.5625,253027.484375,708116.375,297927.21875,0.0
1772752905.6688416,707362.9375,417985.0625,574603.375,583278.625,707757.125,253018.0,708117.0,297885.1875,0.0
1772752905.6738045,707362.9375,417947.875,574433.5,583169.625,707756.9375,253010.671875,708117.25,297845.25,0.0
1772752905.6738489,707363.625,417911.75,574261.3125,583057.0,707757.5625,253003.78125,708117.6875,297800.25,0.0
1772752905.6738596,707362.9375,417878.03125,574084.625,582940.5,707757.1875,252991.265625,708117.125,297751.90625,0.0
1772752905.6765363,707362.375,417840.5,573908.4375,582823.9375,707756.75,252980.546875,708116.5,297706.125,0.0
1772752905.6877089,707362.0,417800.875,573733.75,582707.125,707756.0625,252971.25,708116.0625,297661.25,0.0
1772752905.699031,707361.0625,417764.0625,573559.125,582594.375,707755.125,252961.140625,708115.0,297616.625,0.0
1772752905.6990638,707360.6875,417727.5625,573381.375,582478.6875,707755.0625,252948.796875,708114.8125,297570.84375,0.0
1772752905.6990733,707361.6875,417696.8125,573210.0625,582366.75,707755.625,252939.234375,708116.0625,297528.65625,0.0
1772752905.7015772,707362.5,417662.75,573039.9375,582257.6875,707756.5,252932.984375,708117.0,297487.4375,0.0
1772752905.7038546,707362.5,417624.3125,572867.875,582145.875,707756.3125,252921.71875,708116.5,297443.4375,0.0
1772752905.7065806,707363.1875,417587.375,572695.0,582032.375,707757.1875,252911.15625,708117.25,297398.75,0.0
1772752905.7102058,707364.875,417546.625,572520.625,581920.75,707758.875,252900.25,708118.875,297356.625,0.0
1772752905.7392051,707364.625,417507.625,572344.4375,581808.875,707758.75,252886.84375,708118.5625,297313.625,0.0
1772752905.742374,707364.625,417475.09375,572171.6875,581698.25,707758.625,252876.390625,708118.5625,297273.03125,0.0
1772752905.742438,707366.3125,417440.125,571995.5625,581586.0625,707759.875,252868.34375,708120.375,297228.3125,0.0
1772752905.7449703,707366.0625,417407.125,571823.1875,581476.4375,707760.0,252859.484375,708119.9375,297184.34375,0.0
1772752905.7449908,707367.125,417370.84375,571652.3125,581367.5,707760.625,252850.640625,708120.625,297142.21875,0.0
1772752905.745005,707368.1875,417332.125,571479.9375,581259.625,707761.75,252840.625,708122.0,297098.59375,0.0
1772752905.7476664,707366.875,417296.0,571307.0625,581151.9375,707760.75,252831.859375,708120.9375,297054.15625,0.0
1772752905.7503135,707367.75,417262.03125,571135.4375,581043.4375,707761.5625,252824.078125,708121.8125,297010.09375,0.0
1772752905.7527938,707367.75,417226.71875,570962.375,580934.5,707761.375,252813.703125,708121.4375,296966.71875,0.0
1772752905.755352,707367.375,417187.0,570787.875,580824.3125,707761.5,252803.78125,708121.0625,296921.75,0.0
1772752905.7578208,707368.3125,417143.03125,570611.875,580712.625,707762.3125,252791.984375,708122.25,296874.1875,0.0
1772752905.760306,707369.1875,417100.375,570437.9375,580604.625,707762.75,252780.625,708123.4375,296829.5625,0.0
1772752905.7694347,707368.9375,417066.3125,570268.9375,580500.375,707762.75,252771.328125,708122.625,296787.46875,0.0
1772752905.7694652,707366.375,417029.03125,570100.375,580394.125,707760.3125,252761.765625,708120.375,296745.34375,0.0
1772752905.7715638,707366.6875,416991.3125,569931.125,580287.5,707760.25,252751.84375,708120.125,296705.84375,0.0
1772752905.7753086,707368.9375,416955.28125,569761.3125,580183.375,707762.5625,252742.453125,708122.3125,296662.75,0.0
1772752905.78475,707370.6875,416927.03125,569595.9375,580081.6875,707764.0625,252737.53125,708124.3125,296621.6875,0.0
1772752905.7848003,707370.0,416890.53125,569429.3125,579978.4375,707763.4375,252731.90625,708123.9375,296580.40625,0.0
1772752905.786599,707371.25,416849.6875,569262.125,579875.625,707765.25,252725.734375,708125.0,296539.09375,0.0
1772752905.7977452,707373.125,416818.84375,569092.9375,579774.0,707767.3125,252719.390625,708127.0625,296498.21875,0.0
1772752905.803435,707373.5625,416795.0625,568927.375,579674.25,707767.6875,252712.5,708127.25,296461.84375,0.0
1772752905.8034685,707374.5625,416757.5,568759.5625,579570.6875,707768.75,252703.109375,708128.4375,296424.1875,0.0
1772752905.805344,707373.375,416716.90625,568583.4375,579458.1875,707767.75,252686.21875,708127.25,296374.65625,0.0
1772752905.8076236,707370.9375,416679.1875,568409.8125,579349.4375,707764.8125,252671.46875,708124.375,296326.03125,0.0
1772752905.811694,707370.875,416641.71875,568240.5,579244.9375,707764.8125,252661.265625,708124.125,296284.8125,0.0
1772752905.815892,707372.5,416600.0625,568070.0,579142.3125,707766.125,252652.953125,708126.125,296247.71875,0.0
1772752905.8159225,707373.0,416560.375,567899.8125,579035.4375,707766.9375,252643.203125,708126.875,296207.3125,0.0
1772752905.8332884,707374.0,416530.0625,567738.0625,578936.25,707767.6875,252639.015625,708127.5,296171.4375,0.0
1772752905.8333373,707374.4375,416494.28125,567571.0625,578834.75,707768.3125,252628.453125,708128.0625,296131.3125,0.0
1772752905.8352313,707375.0,416452.28125,567399.3125,578727.3125,707769.1875,252614.59375,708128.875,296089.09375,0.0
1772752905.837582,707376.5,416422.125,567234.625,578624.75,707770.5,252606.109375,708130.1875,296050.65625,0.0
1772752905.8403337,707376.3125,416391.125,567069.4375,578520.1875,707770.0625,252598.421875,708129.75,296009.8125,0.0
1772752905.8426158,707373.9375,416357.6875,566900.4375,578413.1875,707767.6875,252589.921875,708127.5,295967.59375,0.0
1772752905.851444,707376.0,416316.28125,566729.6875,578305.625,707769.875,252579.46875,708129.375,295924.6875,0.0
1772752905.8544583,707377.75,416273.28125,566559.25,578197.75,707771.25,252567.03125,708131.125,295879.09375,0.0
1772752905.8544993,707377.6875,416236.71875,566391.625,578093.125,707771.125,252555.40625,708131.0,295836.25,0.0
1772752905.8563595,707375.625,416205.875,566224.1875,577990.6875,707769.25,252545.21875,708129.3125,295795.3125,0.0
1772752905.8708665,707376.9375,416178.6875,566058.75,577891.5,707770.625,252539.046875,708130.6875,295759.625,0.0
1772752905.8708951,707378.8125,416138.8125,565891.6875,577789.375,707772.375,252532.53125,708132.375,295722.4375,0.0
1772752905.8728237,707380.5625,416096.78125,565721.5,577682.5625,707774.0,252521.4375,708133.625,295679.15625,0.0
1772752905.876882,707380.5625,416070.5,565558.4375,577581.25,707773.9375,252513.390625,708133.8125,295639.75,0.0
1772752905.880371,707380.0,416038.84375,565392.6875,577479.5,707772.875,252505.25,708133.0625,295601.03125,0.0
1772752905.889053,707379.875,416002.90625,565225.5,577377.25,707773.5,252494.078125,708133.3125,295561.875,0.0
1772752905.8921027,707380.6875,415960.53125,565057.9375,577275.75,707774.25,252482.90625,708134.0625,295521.71875,0.0
1772752905.892134,707381.8125,415928.53125,564891.0,577175.0,707775.25,252473.78125,708135.125,295480.25,0.0
1772752905.8940673,707382.9375,415897.9375,564727.5,577076.8125,707776.5,252467.078125,708136.0,295441.625,0.0
1772752905.9085083,707382.5625,415871.84375,564566.375,576979.8125,707775.875,252457.328125,708135.375,295404.6875,0.0
1772752905.9085422,707382.125,415837.78125,564402.25,576880.125,707775.6875,252445.796875,708135.0625,295365.0,0.0
1772752905.9108875,707383.5,415799.59375,564237.4375,576778.6875,707777.3125,252436.046875,708136.3125,295325.21875,0.0
1772752905.9109213,707384.3125,415769.5625,564075.6875,576680.125,707778.125,252425.5,708136.9375,295285.59375,0.0
1772752905.9127944,707383.5,415741.9375,563914.0,576579.4375,707777.125,252416.203125,708136.3125,295244.90625,0.0
1772752905.9238293,707382.25,415706.96875,563748.9375,576478.875,707775.5625,252404.671875,708134.875,295202.53125,0.0
1772752905.9268377,707381.4375,415662.90625,563577.8125,576374.0625,707775.0625,252391.0,708134.4375,295157.75,0.0
1772752905.9268503,707383.5,415626.15625,563413.8125,576272.1875,707776.9375,252383.296875,708136.3125,295117.78125,0.0
1772752905.935043,707382.9375,415598.0,563253.0625,576173.5625,707776.1875,252375.171875,708135.3125,295078.09375,0.0
1772752905.9381635,707383.125,415564.375,563088.0625,576072.6875,707776.1875,252364.53125,708135.5625,295036.6875,0.0
1772752905.9381804,707383.5625,415525.75,562921.1875,575970.875,707776.625,252352.90625,708135.9375,294996.375,0.0
1772752905.9400353,707384.0,415489.09375,562754.75,575871.5625,707777.125,252342.171875,708136.4375,294957.84375,0.0
1772752905.9487693,707383.8125,415461.1875,562594.3125,575776.9375,707777.5,252334.484375,708136.625,294921.34375,0.0
1772752905.953232,707384.375,415419.34375,562426.5,575677.9375,707777.75,252321.34375,708136.9375,294879.5,0.0
1772752905.953246,707384.75,415378.03125,562257.1875,575577.9375,707778.125,252308.296875,708137.1875,294838.5625,0.0
1772752905.9587903,707386.5,415353.625,562096.125,575486.1875,707779.9375,252301.046875,708139.0,294803.25,0.0
1772752905.962531,707387.875,415319.9375,561933.9375,575393.0,707780.875,252294.96875,708140.6875,294766.59375,0.0
1772752905.9662588,707386.3125,415275.75,561765.0,575293.0625,707779.625,252284.421875,708139.0,294721.90625,0.0
1772752905.9806104,707385.25,415241.15625,561602.0,575197.3125,707779.125,252274.859375,708137.8125,294681.5625,0.0
1772752905.980627,707386.875,415209.875,561441.9375,575104.25,707780.25,252268.78125,708139.4375,294643.9375,0.0
1772752905.982519,707388.125,415175.28125,561282.75,575011.4375,707781.4375,252261.625,708140.6875,294608.0,0.0
1772752905.985024,707390.1875,415143.0,561124.5625,574918.125,707783.125,252254.296875,708142.25,294570.625,0.0
1772752905.9912808,707391.0,415115.625,560965.125,574824.5625,707784.0,252246.515625,708143.375,294532.53125,0.0
1772752905.9956057,707391.5,415083.4375,560800.8125,574728.0,707784.5,252235.6875,708143.6875,294491.65625,0.0
1772752905.9956172,707392.125,415046.0625,560640.8125,574635.75,707785.25,252227.46875,708144.0625,294453.9375,0.0
1772752905.9975324,707391.875,415010.9375,560482.25,574543.125,707784.9375,252217.8125,708144.0,294418.53125,0.0
1772752906.0088284,707392.0,414982.875,560327.5625,574452.4375,707784.625,252212.71875,708143.875,294382.6875,0.0
1772752906.0118625,707393.3125,414952.75,560171.9375,574361.25,707786.25,252206.90625,708145.5,294344.59375,0.0
1772752906.0118797,707396.4375,414919.75,560015.5625,574268.5625,707789.5625,252199.296875,708148.5625,294306.6875,0.0
1772752906.0137753,707396.6875,414887.375,559856.5,574172.1875,707790.1875,252188.046875,708149.0,294265.8125,0.0
1772752906.02272,707396.6875,414859.40625,559701.9375,574078.0,707790.125,252179.71875,708148.8125,294227.75,0.0
1772752906.027156,707398.4375,414827.5625,559546.0625,573983.8125,707791.5625,252171.59375,708150.125,294190.1875,0.0
1772752906.027187,707399.75,414791.1875,559388.625,573892.9375,707792.5,252165.15625,708151.875,294154.59375,0.0
1772752906.039062,707399.5,414760.59375,559227.0625,573797.5,707792.5,252154.328125,708151.9375,294114.28125,0.0
1772752906.042126,707396.4375,414727.6875,559063.4375,573701.0,707789.5,252143.328125,708149.1875,294072.53125,0.0
1772752906.04216,707396.4375,414688.71875,558897.0625,573603.1875,707789.3125,252134.21875,708149.0,294029.4375,0.0
1772752906.0438454,707396.375,414648.65625,558729.375,573502.3125,707788.9375,252122.234375,708148.0625,293983.65625,0.0
1772752906.046385,707395.4375,414613.15625,558559.9375,573400.5625,707788.6875,252108.828125,708147.125,293939.125,0.0
1772752906.0505607,707394.75,414574.71875,558394.375,573301.625,707787.875,252097.46875,708146.5,293898.28125,0.0
1772752906.0594184,707394.1875,414530.1875,558226.6875,573200.0625,707787.25,252085.671875,708146.0625,293854.46875,0.0
1772752906.0594563,707394.8125,414490.59375,558061.1875,573103.125,707788.0625,252076.640625,708147.125,293812.53125,0.0
1772752906.0784917,707394.375,414460.625,557898.75,573010.6875,707787.5,252068.953125,708146.8125,293774.625,0.0
1772752906.078549,707394.3125,414432.03125,557741.4375,572921.1875,707787.6875,252063.765625,708146.9375,293741.1875,0.0
1772752906.0840623,707394.125,414398.40625,557579.75,572825.25,707787.4375,252054.203125,708146.5,293700.40625,0.0
1772752906.0878828,707394.3125,414358.0,557415.5,572727.375,707787.125,252042.578125,708146.125,293657.3125,0.0
1772752906.0879407,707395.0,414328.75,557258.625,572638.75,707787.9375,252035.0625,708146.9375,293622.90625,0.0
1772752906.0879521,707395.9375,414293.90625,557101.875,572547.75,707788.5625,252027.90625,708147.9375,293587.5,0.0
1772752906.0922568,707395.75,414261.09375,556946.9375,572457.0,707788.875,252021.46875,708147.9375,293550.84375,0.0
1772752906.0922964,707396.625,414226.84375,556793.3125,572367.5625,707789.8125,252011.734375,708148.6875,293514.0,0.0
1772752906.0941508,707399.375,414194.28125,556639.75,572277.9375,707792.25,252000.828125,708151.3125,293476.0,0.0
1772752906.1053157,707399.0625,414162.28125,556486.125,572188.0625,707792.0625,251990.546875,708151.0625,293440.0625,0.0
1772752906.1096797,707399.3125,414128.65625,556333.4375,572097.5,707792.25,251980.96875,708151.0625,293403.9375,0.0
1772752906.1097124,707400.8125,414094.15625,556178.125,572005.875,707793.5625,251969.4375,708152.125,293364.5,0.0
1772752906.1158972,707399.875,414062.59375,556022.5625,571917.5,707792.875,251958.625,708151.375,293327.15625,0.0
1772752906.115931,707400.75,414033.09375,555869.875,571830.0,707793.75,251953.96875,708152.125,293293.25,0.0
1772752906.1246605,707400.1875,413999.5625,555716.1875,571740.375,707793.0625,251947.0,708151.875,293257.40625,0.0
1772752906.1246943,707401.0,413963.90625,555559.0,571649.375,707794.0625,251936.359375,708152.9375,293218.59375,0.0
1772752906.1266732,707400.1875,413931.34375,555404.3125,571561.5625,707793.4375,251927.78125,708152.3125,293184.1875,0.0
1772752906.1434457,707403.5,413900.40625,555253.125,571476.75,707796.4375,251919.640625,708155.4375,293151.90625,0.0
1772752906.143474,707404.25,413871.4375,555100.75,571391.5,707797.375,251910.25,708156.0625,293118.90625,0.0
1772752906.1458745,707404.375,413836.125,554946.625,571304.0625,707797.375,251902.296875,708155.875,293084.65625,0.0
1772752906.1459072,707407.0625,413808.6875,554792.6875,571216.1875,707800.3125,251896.484375,708158.4375,293051.3125,0.0
1772752906.154653,707409.5,413782.03125,554638.0,571126.25,707802.6875,251889.953125,708160.9375,293016.625,0.0
1772752906.1546912,707410.375,413748.78125,554480.9375,571033.5625,707803.875,251883.421875,708161.6875,292979.34375,0.0
1772752906.1659636,707409.4375,413712.9375,554322.1875,570941.75,707802.4375,251875.109375,708160.6875,292939.84375,0.0
1772752906.1659968,707409.875,413665.53125,554156.875,570844.875,707803.0,251859.640625,708161.3125,292892.1875,0.0
1772752906.1685412,707405.8125,413619.9375,553987.0,570742.625,707799.25,251839.0,708157.1875,292839.15625,0.0
1772752906.1685865,707400.5,413570.875,553815.125,570637.8125,707793.75,251815.03125,708152.125,292784.875,0.0
1772752906.177142,707400.625,413530.28125,553657.0,570546.875,707793.9375,251802.875,708152.3125,292746.0,0.0
1772752906.177183,707401.375,413501.84375,553506.4375,570462.9375,707794.5,251797.328125,708152.5625,292712.125,0.0
1772752906.1796503,707402.625,413467.3125,553355.8125,570378.0,707795.5625,251792.140625,708153.8125,292679.21875,0.0
1772752906.1796863,707403.9375,413431.5625,553206.0,570294.625,707797.0,251786.421875,708154.875,292647.46875,0.0
1772752906.185121,707405.375,413406.53125,553056.3125,570209.0625,707798.6875,251781.140625,708156.3125,292614.5625,0.0
1772752906.1915638,707404.9375,413369.875,552898.6875,570115.75,707798.25,251769.4375,708156.3125,292575.3125,0.0
1772752906.195435,707405.5,413333.5625,552744.25,570027.25,707798.75,251763.0,708156.6875,292538.65625,0.0
1772752906.2022712,707406.5625,413302.8125,552591.3125,569939.125,707799.5625,251755.578125,708157.5625,292502.625,0.0
1772752906.202322,707408.0,413266.875,552436.25,569850.6875,707800.9375,251747.984375,708158.625,292467.75,0.0
1772752906.2038429,707407.6875,413228.25,552278.9375,569759.875,707800.9375,251737.25,708158.5625,292431.03125,0.0
1772752906.2130096,707408.0625,413195.1875,552124.5625,569669.1875,707801.4375,251728.046875,708159.0625,292395.96875,0.0
1772752906.2159393,707408.1875,413162.71875,551972.25,569580.4375,707801.625,251720.53125,708158.9375,292361.625,0.0
1772752906.2159696,707407.4375,413126.5,551819.4375,569494.25,707800.625,251713.109375,708157.8125,292325.875,0.0
1772752906.2215815,707407.625,413097.4375,551665.75,569405.4375,707801.125,251703.984375,708158.375,292286.4375,0.0
1772752906.2241292,707408.9375,413064.09375,551512.0,569316.6875,707802.375,251695.046875,708159.6875,292248.28125,0.0
1772752906.2313864,707409.25,413027.625,551357.5625,569226.8125,707802.6875,251686.5625,708159.875,292212.25,0.0
1772752906.243562,707409.25,412998.21875,551203.8125,569139.75,707802.5625,251679.765625,708159.6875,292176.84375,0.0
1772752906.2436123,707409.9375,412961.8125,551046.5,569050.125,707803.25,251668.046875,708160.0625,292139.375,0.0
1772752906.2450945,707410.5625,412931.25,550894.1875,568963.0625,707803.875,251655.703125,708160.6875,292103.6875,0.0
1772752906.2478614,707410.6875,412898.4375,550745.125,568876.9375,707803.9375,251647.03125,708160.8125,292070.96875,0.0
1772752906.25032,707410.9375,412868.21875,550595.75,568791.3125,707804.0625,251641.40625,708160.9375,292038.78125,0.0
1772752906.2588444,707411.5625,412837.53125,550446.25,568705.125,707804.5,251636.046875,708161.4375,292005.625,0.0
1772752906.2621481,707412.5625,412795.0,550292.125,568616.6875,707805.75,251624.6875,708162.75,291964.65625,0.0
1772752906.2621844,707412.0625,412761.1875,550138.3125,568527.375,707805.375,251615.03125,708162.375,291925.96875,0.0
1772752906.2641404,707411.75,412729.71875,549984.5625,568437.3125,707804.9375,251604.125,708161.75,291887.5,0.0
1772752906.2778099,707412.4375,412696.46875,549830.6875,568347.0625,707805.375,251592.5,708162.6875,291847.46875,0.0
1772752906.2808764,707413.1875,412655.34375,549674.9375,568255.5,707806.125,251580.25,708163.5,291806.15625,0.0
1772752906.2809093,707414.6875,412618.9375,549523.0,568167.875,707808.0625,251571.046875,708165.0625,291770.9375,0.0
1772752906.2828228,707412.4375,412589.96875,549371.6875,568077.8125,707805.8125,251558.703125,708162.375,291734.4375,0.0
1772752906.2853477,707411.1875,412562.25,549224.0625,567989.4375,707804.25,251549.859375,708161.3125,291699.75,0.0
1772752906.289146,707410.1875,412524.8125,549070.0625,567894.1875,707803.0625,251537.96875,708160.0,291658.8125,0.0
1772752906.297917,707411.8125,412484.84375,548918.625,567800.75,707804.5,251530.265625,708161.6875,291620.90625,0.0
1772752906.3022096,707412.6875,412453.0,548771.0,567707.625,707805.5,251526.421875,708162.8125,291586.9375,0.0
1772752906.3022473,707413.25,412421.53125,548623.25,567615.3125,707806.0,251518.46875,708163.0,291554.65625,0.0
1772752906.304178,707412.875,412394.09375,548476.875,567522.625,707805.8125,251509.171875,708162.9375,291524.4375,0.0
1772752906.3178132,707415.25,412365.21875,548329.5625,567427.875,707807.8125,251499.25,708164.625,291492.15625,0.0
1772752906.3208392,707415.3125,412328.09375,548178.25,567329.75,707807.4375,251489.859375,708164.25,291456.125,0.0
1772752906.3208709,707417.1875,412293.78125,548029.1875,567233.6875,707809.5,251482.96875,708166.75,291423.75,0.0
1772752906.3228025,707417.4375,412264.0,547878.8125,567133.625,707809.9375,251475.28125,708166.9375,291387.71875,0.0
1772752906.325353,707417.875,412235.125,547731.875,567035.6875,707810.875,251471.078125,708167.5,291355.375,0.0
1772752906.328846,707419.5,412199.96875,547582.0625,566934.875,707812.875,251464.640625,708168.9375,291322.375,0.0
1772752906.3375657,707419.625,412159.84375,547432.4375,566830.8125,707812.75,251455.078125,708169.0,291289.8125,0.0
1772752906.345977,707417.75,412124.875,547280.6875,566725.4375,707811.0,251446.140625,708167.25,291252.71875,0.0
1772752906.3460104,707416.8125,412092.4375,547131.0625,566621.125,707810.3125,251437.015625,708166.0,291216.0625,0.0
1772752906.3478363,707415.875,412065.34375,546985.5,566520.75,707809.4375,251430.5,708165.25,291183.4375,0.0
1772752906.3503668,707416.0,412033.96875,546837.125,566415.9375,707809.125,251419.5,708165.5,291149.0,0.0
1772752906.3775837,707416.75,411998.8125,546684.0,566310.0,707809.875,251410.109375,708166.25,291110.75,0.0
1772752906.3810968,707419.9375,411968.5,546536.8125,566210.75,707813.0,251405.640625,708169.4375,291077.9375,0.0
1772752906.3811457,707419.6875,411931.125,546388.75,566109.1875,707812.625,251396.25,708168.8125,291043.5,0.0
1772752906.3828216,707419.125,411903.15625,546244.75,566007.4375,707812.125,251385.96875,708168.625,291011.15625,0.0
1772752906.3851151,707419.625,411875.53125,546097.5,565904.25,707812.375,251378.640625,708168.9375,290976.8125,0.0
1772752906.3877432,707420.125,411844.59375,545949.0625,565799.5625,707813.0,251371.65625,708168.9375,290939.53125,0.0
1772752906.3903487,707419.8125,411812.03125,545799.3125,565697.1875,707812.5625,251362.640625,708168.375,290902.25,0.0
1772752906.3928251,707419.125,411779.78125,545650.25,565594.9375,707812.125,251351.71875,708167.6875,290867.375,0.0
1772752906.395354,707418.875,411745.625,545499.6875,565492.375,707811.9375,251339.203125,708167.875,290832.59375,0.0
1772752906.3977537,707419.125,411707.53125,545346.9375,565387.0625,707812.125,251325.53125,708168.0,290792.8125,0.0
1772752906.400412,707420.0625,411663.90625,545194.75,565281.1875,707812.625,251311.21875,708168.375,290753.46875,0.0
1772752906.402838,707421.6875,411625.28125,545045.6875,565178.1875,707814.4375,251299.875,708169.875,290718.34375,0.0
1772752906.4060087,707421.375,411590.75,544896.9375,565075.625,707813.625,251287.703125,708169.25,290681.3125,0.0
1772752906.4060385,707419.875,411554.71875,544745.3125,564971.125,707812.0,251276.359375,708167.6875,290641.1875,0.0
1772752906.4138732,707420.3125,411520.5,544594.625,564868.0625,707812.875,251267.5,708168.5,290603.625,0.0
1772752906.4187858,707421.375,411484.09375,544442.75,564762.875,707814.125,251254.546875,708169.4375,290565.375,0.0
1772752906.4188063,707420.0625,411449.6875,544294.75,564662.3125,707813.25,251245.875,708168.1875,290530.125,0.0
1772752906.4237874,707419.0,411418.3125,544146.8125,564559.3125,707812.0,251236.5625,708166.875,290491.40625,0.0
1772752906.4334967,707419.4375,411390.40625,544001.9375,564459.6875,707812.1875,251227.8125,708167.0625,290455.375,0.0
1772752906.433524,707419.625,411355.625,543855.4375,564361.1875,707812.1875,251217.34375,708166.75,290422.84375,0.0
1772752906.4356987,707419.25,411319.59375,543708.875,564260.3125,707811.9375,251204.65625,708166.25,290386.1875,0.0
1772752906.4357326,707418.25,411288.3125,543564.75,564160.125,707811.125,251197.953125,708165.0,290349.53125,0.0
1772752906.4465716,707418.1875,411262.28125,543423.125,564061.4375,707811.3125,251192.84375,708164.8125,290316.90625,0.0
1772752906.451624,707419.3125,411229.03125,543279.625,563962.625,707812.625,251186.953125,708166.0,290284.71875,0.0
1772752906.4546635,707418.5,411191.03125,543132.8125,563858.875,707811.625,251177.65625,708164.4375,290246.625,0.0
1772752906.4547007,707419.125,411170.28125,542993.1875,563762.625,707811.5625,251170.40625,708164.375,290213.46875,0.0
1772752906.456566,707419.8125,411136.75,542848.625,563664.6875,707812.375,251158.875,708164.4375,290178.59375,0.0
1772752906.4676073,707418.875,411101.4375,542699.75,563562.0625,707811.625,251143.5,708162.8125,290140.59375,0.0
1772752906.470934,707417.8125,411066.125,542554.5,563461.6875,707810.3125,251132.5,708161.125,290106.0,0.0
1772752906.470968,707419.875,411029.8125,542408.8125,563362.5,707812.625,251125.34375,708162.9375,290073.0,0.0
1772752906.4791198,707419.25,411002.03125,542263.875,563263.25,707811.5,251116.046875,708161.5,290037.15625,0.0
1772752906.482122,707419.0,410967.40625,542116.5625,563164.8125,707811.625,251106.03125,708161.3125,290001.28125,0.0
1772752906.4821534,707418.8125,410933.09375,541975.375,563072.5,707811.75,251099.859375,708160.4375,289970.34375,0.0
1772752906.4838617,707419.25,410902.0625,541831.6875,562976.625,707811.8125,251091.375,708160.1875,289934.15625,0.0
1772752906.4951558,707418.5,410874.96875,541687.875,562879.1875,707811.0,251081.984375,708159.0,289895.96875,0.0
1772752906.499776,707416.9375,410839.21875,541544.0,562779.6875,707809.9375,251073.484375,708157.3125,289860.5625,0.0
1772752906.4998252,707419.25,410808.1875,541402.25,562685.875,707812.125,251066.34375,708159.0625,289827.5,0.0
1772752906.5035884,707420.125,410787.1875,541262.1875,562593.625,707812.8125,251061.59375,708159.1875,289796.46875,0.0
1772752906.5036232,707419.875,410755.96875,541119.5625,562496.9375,707812.375,251053.015625,708158.1875,289760.4375,0.0
1772752906.509008,707419.875,410722.53125,540977.125,562401.0,707812.625,251045.78125,708158.1875,289726.1875,0.0
1772752906.515087,707419.0625,410691.40625,540838.75,562308.5625,707812.125,251040.40625,708157.3125,289696.0625,0.0
1772752906.521602,707419.6875,410661.90625,540699.0,562216.75,707812.5625,251034.515625,708157.3125,289663.96875,0.0
1772752906.5258605,707422.75,410634.28125,540557.8125,562122.1875,707815.5,251026.015625,708159.375,289628.375,0.0
1772752906.5258958,707424.4375,410600.59375,540413.625,562024.875,707816.6875,251016.1875,708160.0625,289591.09375,0.0
1772752906.5317233,707423.6875,410566.59375,540269.875,561928.5,707816.1875,251009.296875,708159.375,289555.78125,0.0
1772752906.5353608,707424.3125,410541.9375,540132.625,561839.0,707816.9375,251007.59375,708160.0,289526.71875,0.0
1772752906.5534632,707425.125,410510.5625,539991.0,561745.6875,707817.9375,251000.625,708160.0,289492.9375,0.0
1772752906.553496,707426.5625,410478.09375,539849.1875,561650.1875,707819.3125,250988.5625,708161.25,289455.71875,0.0
1772752906.5553243,707426.5,410443.84375,539702.8125,561552.625,707819.0,250972.8125,708160.4375,289416.03125,0.0
1772752906.5585887,707425.9375,410412.90625,539562.9375,561462.375,707818.5625,250964.140625,708159.375,289385.375,0.0
1772752906.5586393,707425.125,410384.5625,539419.6875,561366.4375,707817.9375,250952.25,708157.9375,289348.4375,0.0
1772752906.5600584,707424.6875,410353.09375,539276.375,561268.5,707817.5625,250941.34375,708157.1875,289311.6875,0.0
1772752906.5637968,707424.4375,410319.84375,539133.0625,561172.5625,707817.4375,250930.984375,708156.375,289278.625,0.0
1772752906.5782623,707423.625,410282.90625,538989.5625,561080.125,707816.1875,250922.578125,708154.875,289246.0625,0.0
1772752906.5782876,707424.0,410243.75,538845.875,560986.6875,707816.5625,250914.34375,708154.5,289209.5,0.0
1772752906.5874832,707425.5,410213.90625,538701.3125,560893.25,707817.5625,250907.640625,708155.25,289172.5,0.0
1772752906.5875037,707425.75,410185.375,538557.0,560800.8125,707818.375,250899.140625,708155.25,289138.4375,0.0
1772752906.5875103,707425.5,410153.53125,538410.625,560703.4375,707818.375,250887.53125,708154.5,289102.46875,0.0
1772752906.5906224,707424.3125,410119.125,538265.0,560605.5625,707817.4375,250874.109375,708153.1875,289065.90625,0.0
1772752906.5906372,707425.0625,410083.0,538118.625,560508.125,707818.0,250860.078125,708152.9375,289027.1875,0.0
1772752906.5925508,707426.375,410049.84375,537974.4375,560414.9375,707819.0625,250850.421875,708153.75,288990.28125,0.0
1772752906.6068945,707425.25,410022.75,537835.0625,560325.5625,707818.25,250843.453125,708152.375,288958.0,0.0
1772752906.606916,707425.5625,409986.1875,537693.875,560235.0625,707817.8125,250833.171875,708151.5,288925.90625,0.0
1772752906.6093752,707425.875,409949.875,537549.4375,560139.8125,707818.0625,250821.71875,708150.6875,288889.0625,0.0
1772752906.609398,707426.375,409923.9375,537411.6875,560049.0,707819.0625,250815.015625,708151.0625,288855.8125,0.0
1772752906.6200595,707425.6875,409892.46875,537271.6875,559957.8125,707818.25,250806.96875,708150.125,288822.46875,0.0
1772752906.6243804,707425.5,409857.4375,537129.4375,559865.4375,707818.0625,250797.578125,708149.625,288788.3125,0.0
1772752906.6244156,707426.375,409819.53125,536984.4375,559771.8125,707819.0625,250786.9375,708150.0625,288750.21875,0.0
1772752906.6268668,707427.1875,409792.96875,536843.875,559683.0625,707819.625,250779.34375,708150.0625,288714.625,0.0
1772752906.6268907,707428.1875,409763.90625,536704.375,559593.8125,707820.25,250770.84375,708150.0625,288679.84375,0.0
1772752906.6400533,707428.4375,409735.125,536570.8125,559508.0,707821.25,250766.375,708150.125,288650.09375,0.0
1772752906.6444159,707429.4375,409701.0625,536429.9375,559416.625,707822.1875,250756.28125,708151.0625,288615.5625,0.0
1772752906.6444368,707430.5,409667.875,536288.3125,559325.1875,707822.9375,250745.09375,708151.25,288581.6875,0.0
1772752906.648177,707427.375,409641.34375,536149.8125,559235.75,707819.875,250734.375,708147.9375,288549.9375,0.0
1772752906.6481967,707428.8125,409610.3125,536010.25,559146.5,707821.5625,250728.109375,708149.0,288518.84375,0.0
1772752906.6668932,707429.6875,409578.46875,535872.0,559058.75,707821.9375,250723.1875,708148.625,288486.65625,0.0
1772752906.6669176,707429.875,409543.0625,535730.3125,558968.0,707822.0,250714.4375,708148.0625,288450.625,0.0
1772752906.6693594,707431.5,409511.5,535594.3125,558882.4375,707823.8125,250704.15625,708149.0,288417.90625,0.0
1772752906.6693745,707431.25,409487.90625,535457.25,558796.0625,707823.75,250695.5625,708148.5625,288383.375,0.0
1772752906.6718593,707430.625,409458.3125,535316.875,558705.6875,707823.0,250685.828125,708147.4375,288348.59375,0.0
1772752906.671867,707430.6875,409432.5625,535180.1875,558620.5625,707823.25,250680.28125,708146.9375,288317.5,0.0
1772752906.6800673,707430.625,409404.3125,535043.0,558535.5,707823.125,250670.265625,708145.875,288285.46875,0.0
1772752906.6843865,707432.1875,409364.4375,534902.6875,558446.375,707824.6875,250657.921875,708146.75,288250.25,0.0
1772752906.6844046,707431.6875,409332.6875,534766.6875,558358.9375,707824.4375,250649.171875,708145.875,288218.53125,0.0
1772752906.692547,707430.625,409308.90625,534630.3125,558270.4375,707823.125,250640.40625,708144.5,288184.53125,0.0
1772752906.695042,707433.1875,409281.28125,534497.625,558188.0,707825.625,250634.5,708146.5625,288157.71875,0.0
1772752906.69878,707433.9375,409250.71875,534364.8125,558105.5625,707826.3125,250626.90625,708146.125,288132.6875,0.0
1772752906.7082374,707433.75,409225.9375,534232.0,558022.125,707826.125,250619.21875,708145.4375,288104.15625,0.0
1772752906.708262,707436.25,409194.75,534097.75,557934.6875,707828.3125,250612.0625,708147.0,288074.46875,0.0
1772752906.710036,707435.3125,409160.25,533962.75,557848.25,707827.5625,250604.375,708145.6875,288045.0625,0.0
1772752906.7213488,707435.25,409132.59375,533831.125,557764.75,707827.375,250596.5,708144.8125,288015.03125,0.0
1772752906.7243793,707436.125,409109.90625,533702.9375,557683.9375,707828.4375,250590.6875,708144.625,287988.65625,0.0
1772752906.7243989,707436.4375,409075.03125,533567.875,557599.875,707828.625,250580.6875,708144.8125,287958.25,0.0
1772752906.7262828,707436.75,409047.3125,533435.0625,557516.625,707829.1875,250573.703125,708144.4375,287928.125,0.0
1772752906.7356365,707436.5,409023.96875,533301.8125,557433.5625,707828.625,250567.09375,708143.6875,287896.65625,0.0
1772752906.7356536,707437.5625,408993.84375,533167.375,557351.0625,707829.5625,250560.03125,708144.25,287865.34375,0.0
1772752906.7375438,707438.1875,408958.1875,533033.3125,557270.875,707830.1875,250555.5625,708144.25,287834.0625,0.0
1772752906.7462995,707439.0625,408928.65625,532898.0,557187.6875,707830.875,250547.875,708144.25,287800.28125,0.0
1772752906.7493792,707439.0625,408904.53125,532764.9375,557107.3125,707830.9375,250538.125,708143.4375,287769.5,0.0
1772752906.7493947,707439.8125,408868.0625,532628.4375,557023.625,707832.0625,250529.265625,708144.0625,287736.4375,0.0
1772752906.7588108,707441.25,408838.8125,532494.6875,556941.3125,707832.9375,250521.5,708145.25,287705.21875,0.0
1772752906.7618697,707441.4375,408814.6875,532361.5625,556859.125,707832.9375,250513.09375,708144.0625,287674.21875,0.0
1772752906.7618854,707437.9375,408779.28125,532224.75,556777.0,707829.6875,250503.25,708139.9375,287643.8125,0.0
1772752906.7638042,707438.0,408749.40625,532091.6875,556696.6875,707830.25,250494.140625,708139.5,287616.0,0.0
1772752906.7752073,707438.125,408721.6875,531958.6875,556614.625,707830.1875,250484.75,708138.875,287584.34375,0.0
1772752906.7752323,707437.8125,408686.5625,531823.0625,556531.625,707829.5625,250476.96875,708137.625,287551.28125,0.0
1772752906.7818897,707439.375,408653.125,531690.875,556450.1875,707831.125,250469.90625,708138.625,287521.9375,0.0
1772752906.7819314,707440.1875,408631.84375,531564.3125,556373.5625,707832.125,250463.734375,708139.25,287497.1875,0.0
1772752906.79007,707439.375,408601.96875,531431.875,556294.1875,707831.25,250454.96875,708137.5625,287467.9375,0.0
1772752906.7943873,707440.625,408570.875,531297.9375,556213.5,707832.125,250449.609375,708137.875,287438.0,0.0
1772752906.7944088,707442.375,408546.53125,531168.5625,556137.6875,707833.8125,250445.5,708139.25,287411.96875,0.0
1772752906.8025646,707443.125,408515.53125,531038.75,556059.125,707834.5625,250437.0,708139.3125,287382.21875,0.0
1772752906.8056457,707443.375,408492.375,530909.9375,555981.625,707835.625,250429.5,708139.0,287352.25,0.0
1772752906.8056636,707445.0625,408461.0625,530781.4375,555905.25,707837.125,250421.890625,708139.625,287323.09375,0.0
1772752906.8075523,707444.375,408428.78125,530648.125,555825.75,707835.875,250409.640625,708137.8125,287292.71875,0.0
1772752906.824434,707444.5625,408404.65625,530517.25,555749.0,707836.4375,250400.703125,708137.5625,287262.65625,0.0
1772752906.8244672,707445.625,408372.46875,530387.5,555671.8125,707837.75,250394.09375,708137.875,287235.5,0.0
1772752906.8262825,707447.125,408341.71875,530253.25,555590.125,707839.25,250385.234375,708138.875,287202.3125,0.0
1772752906.8288028,707445.375,408321.34375,530123.5625,555511.875,707837.5,250378.984375,708136.1875,287170.40625,0.0
1772752906.8312917,707445.8125,408293.875,529992.25,555434.0,707837.375,250371.109375,708136.125,287142.78125,0.0
1772752906.8337743,707446.0,408265.0,529861.375,555357.4375,707837.875,250367.265625,708136.1875,287117.65625,0.0
1772752906.843234,707446.25,408224.15625,529723.6875,555272.25,707838.3125,250356.625,708135.375,287084.375,0.0
1772752906.8432689,707445.625,408192.3125,529588.6875,555187.6875,707837.25,250343.484375,708133.8125,287048.09375,0.0
1772752906.8450496,707446.0625,408168.53125,529462.4375,555112.125,707837.9375,250336.953125,708133.8125,287021.28125,0.0
1772752906.8538,707446.625,408148.3125,529337.875,555038.25,707838.5625,250333.828125,708133.6875,286997.9375,0.0
1772752906.8605063,707446.0625,408123.75,529208.0,554957.875,707838.0,250325.609375,708132.4375,286967.1875,0.0
1772752906.860531,707446.4375,408087.09375,529074.875,554875.9375,707838.125,250313.0,708132.0,286932.65625,0.0
1772752906.8681984,707447.6875,408063.21875,528947.4375,554800.1875,707839.375,250305.3125,708132.25,286904.15625,0.0
1772752906.868219,707448.5,408039.53125,528821.3125,554724.8125,707841.0,250299.40625,708132.8125,286875.1875,0.0
1772752906.8700407,707448.3125,408004.84375,528692.875,554647.1875,707840.8125,250290.734375,708131.8125,286843.4375,0.0
1772752906.8725379,707448.9375,407975.78125,528565.3125,554570.75,707841.0625,250283.3125,708131.3125,286812.15625,0.0
1772752906.8812962,707450.0625,407950.65625,528439.0,554496.0,707842.5,250278.65625,708131.8125,286783.0,0.0
1772752906.8843763,707449.5625,407918.71875,528309.625,554418.75,707842.125,250271.421875,708130.6875,286753.5,0.0
1772752906.8843915,707450.8125,407884.3125,528176.5,554339.0,707843.3125,250260.96875,708131.3125,286721.5,0.0
1772752906.8863063,707453.3125,407862.75,528048.0,554261.9375,707845.625,250251.84375,708132.8125,286690.625,0.0
1772752906.8950675,707452.6875,407836.21875,527920.875,554185.6875,707845.25,250242.359375,708131.8125,286661.125,0.0
1772752906.9044588,707451.875,407802.78125,527793.0,554108.875,707844.4375,250235.03125,708130.1875,286631.0,0.0
1772752906.9044807,707449.625,407771.3125,527661.4375,554031.4375,707842.0625,250226.1875,708127.25,286600.78125,0.0
1772752906.906299,707449.75,407744.375,527527.9375,553953.5625,707841.875,250217.421875,708126.1875,286566.625,0.0
1772752906.9087915,707449.4375,407712.75,527396.6875,553877.0,707841.4375,250210.359375,708125.125,286535.6875,0.0
1772752906.91755,707450.0,407687.15625,527269.0625,553803.75,707841.9375,250207.046875,708125.1875,286509.9375,0.0
1772752906.9218788,707451.8125,407660.0,527144.625,553734.75,707843.8125,250203.5625,708125.75,286486.0,0.0
1772752906.9218943,707454.0,407632.8125,527018.75,553664.1875,707846.1875,250198.5625,708127.1875,286458.625,0.0
1772752906.9350755,707457.4375,407613.6875,526897.8125,553594.625,707849.375,250196.59375,708130.0,286433.3125,0.0
1772752906.939973,707459.5,407595.15625,526778.0,553527.8125,707851.625,250197.296875,708130.9375,286412.59375,0.0
1772752906.939984,707463.125,407567.28125,526653.6875,553459.0,707855.125,250194.53125,708133.6875,286389.78125,0.0
1772752906.9399908,707465.75,407540.8125,526529.4375,553391.375,707857.625,250188.546875,708135.75,286366.4375,0.0
1772752906.943198,707465.1875,407512.1875,526400.875,553315.0625,707857.3125,250176.65625,708134.3125,286335.78125,0.0
1772752906.9432151,707463.9375,407470.875,526264.0625,553227.875,707856.375,250159.21875,708132.25,286297.15625,0.0
1772752906.9563184,707460.5625,407424.65625,526123.25,553139.1875,707852.875,250140.078125,708128.0,286254.59375,0.0
1772752906.9687452,707455.375,407381.21875,525985.375,553055.5,707846.9375,250122.921875,708121.6875,286215.4375,0.0
1772752906.9687707,707455.25,407349.84375,525856.9375,552979.875,707847.0625,250111.828125,708121.0625,286185.3125,0.0
1772752906.968779,707458.375,407328.375,525733.8125,552909.4375,707850.1875,250103.6875,708123.125,286161.34375,0.0
1772752906.9718657,707459.1875,407300.125,525610.6875,552836.625,707851.0625,250094.9375,708122.875,286134.875,0.0
1772752906.9718788,707458.875,407267.75,525483.625,552761.375,707851.0,250084.734375,708121.875,286105.46875,0.0
1772752906.9737954,707459.375,407242.90625,525359.0625,552689.1875,707851.1875,250077.671875,708121.6875,286079.375,0.0
1772752906.977544,707460.0,407215.09375,525232.5625,552615.0,707851.875,250066.5,708121.1875,286051.5625,0.0
1772752906.99194,707460.125,407177.53125,525104.5625,552538.125,707852.4375,250055.328125,708120.8125,286023.03125,0.0
1772752906.9919617,707461.625,407150.375,524984.375,552469.25,707853.75,250050.59375,708121.4375,285999.78125,0.0
1772752907.0194552,707462.5,407128.625,524862.6875,552399.0625,707854.6875,250045.671875,708121.1875,285974.59375,0.0
1772752907.0194788,707461.6875,407107.09375,524740.125,552330.3125,707853.875,250041.46875,708119.5625,285950.1875,0.0
1772752907.0212836,707462.4375,407083.5,524619.0625,552260.5,707854.5625,250037.171875,708119.5,285926.46875,0.0
1772752907.0249667,707461.8125,407053.0,524495.125,552188.4375,707854.1875,250031.1875,708117.875,285900.5625,0.0
1772752907.024981,707462.4375,407020.1875,524369.5625,552116.0,707854.6875,250023.765625,708117.25,285872.3125,0.0
1772752907.0249872,707462.8125,406991.5,524244.0,552043.75,707854.75,250016.96875,708116.8125,285844.9375,0.0
1772752907.0275285,707463.125,406968.96875,524121.875,551973.5625,707855.125,250011.515625,708116.4375,285819.8125,0.0
1772752907.030624,707463.6875,406944.65625,523999.84375,551902.25,707855.8125,250005.96875,708116.1875,285794.4375,0.0
1772752907.0306368,707464.1875,406923.4375,523877.625,551831.4375,707856.5625,249999.53125,708115.875,285769.40625,0.0
1772752907.0325491,707466.125,406899.59375,523755.84375,551760.625,707858.125,249992.5625,708116.5,285742.125,0.0
1772752907.035036,707466.125,406870.4375,523633.8125,551688.8125,707858.5,249985.234375,708115.75,285713.96875,0.0
1772752907.0412989,707466.5625,406833.78125,523510.4375,551617.3125,707859.0625,249975.75,708115.0,285688.03125,0.0
1772752907.0437882,707468.4375,406802.125,523385.34375,551546.375,707860.8125,249967.4375,708116.0625,285661.5625,0.0
1772752907.0463045,707468.875,406776.65625,523261.875,551475.25,707861.25,249960.734375,708115.375,285636.875,0.0
1772752907.0487916,707470.1875,406749.8125,523139.65625,551403.1875,707862.25,249955.1875,708115.5625,285611.9375,0.0
1772752907.0513086,707470.1875,406721.75,523014.46875,551327.5,707863.0,249946.703125,708114.8125,285584.0625,0.0
1772752907.0632157,707468.75,406694.3125,522892.96875,551255.4375,707860.625,249937.578125,708111.8125,285559.5625,0.0
1772752907.0632377,707470.125,406664.53125,522769.78125,551183.5625,707861.5625,249929.96875,708111.25,285532.0,0.0
1772752907.0654736,707471.125,406636.8125,522646.75,551111.6875,707863.0625,249924.078125,708111.25,285503.6875,0.0
1772752907.065487,707471.875,406609.46875,522524.4375,551038.8125,707863.6875,249915.3125,708110.6875,285473.90625,0.0
1772752907.0713437,707472.25,406583.875,522402.3125,550965.9375,707864.25,249905.125,708110.25,285444.5625,0.0
1772752907.0750968,707471.4375,406556.71875,522280.625,550891.3125,707863.75,249896.53125,708108.1875,285414.28125,0.0
1772752907.0788047,707471.25,406521.3125,522156.8125,550815.9375,707863.75,249888.484375,708106.9375,285383.875,0.0
1772752907.088208,707471.4375,406492.34375,522034.21875,550739.3125,707863.5,249879.015625,708105.875,285353.8125,0.0
1772752907.088229,707471.4375,406463.0,521909.78125,550660.375,707863.3125,249868.28125,708104.125,285322.96875,0.0
1772752907.0906272,707471.125,406428.21875,521781.5625,550578.0,707863.875,249856.390625,708102.9375,285288.5625,0.0
1772752907.0906436,707471.5625,406398.90625,521656.03125,550498.25,707864.0625,249846.65625,708101.75,285260.03125,0.0
1772752907.0988283,707473.0,406374.5,521534.8125,550420.3125,707865.125,249839.234375,708101.4375,285234.28125,0.0
1772752907.1025672,707473.3125,406337.75,521409.4375,550335.3125,707865.5,249828.953125,708100.6875,285205.21875,0.0
1772752907.1062925,707473.0625,406302.6875,521282.59375,550250.0,707864.875,249819.296875,708098.3125,285176.71875,0.0
1772752907.1156807,707472.0,406279.71875,521157.5,550166.25,707863.625,249812.3125,708095.4375,285148.625,0.0
1772752907.1157043,707471.4375,406246.1875,521028.21875,550079.875,707863.3125,249802.578125,708092.8125,285118.25,0.0
1772752907.1200526,707471.875,406212.84375,520901.25,549993.125,707863.75,249794.171875,708091.5,285086.9375,0.0
1772752907.125065,707473.6875,406184.40625,520777.96875,549905.0,707865.125,249786.203125,708091.125,285057.8125,0.0
1772752907.1275408,707472.4375,406162.40625,520657.4375,549820.5625,707864.3125,249781.46875,708087.8125,285032.40625,0.0
1772752907.1312852,707472.8125,406124.0625,520530.84375,549729.0,707864.75,249772.625,708085.5,285004.96875,0.0
1772752907.140692,707472.4375,406091.78125,520406.40625,549638.75,707864.3125,249764.578125,708082.75,284979.75,0.0
1772752907.1407287,707475.5625,406069.53125,520285.25,549552.5625,707867.4375,249759.828125,708082.5625,284954.0,0.0
1772752907.1425545,707476.375,406047.34375,520166.96875,549469.125,707868.625,249757.6875,708079.875,284929.9375,0.0
1772752907.1463008,707477.25,406023.40625,520047.96875,549382.5,707868.625,249750.71875,708075.0625,284905.0,0.0
1772752907.155652,707479.0,406003.53125,519931.1875,549298.0,707870.5,249745.796875,708069.125,284882.65625,0.0
1772752907.1556792,707479.75,405974.65625,519808.25,549209.9375,707871.75,249738.28125,708055.375,284854.84375,0.0
1772752907.1575303,707479.625,405943.28125,519683.8125,549119.4375,707871.75,249730.515625,707994.5625,284823.71875,0.0
1772752907.1706088,707479.125,405919.0625,519561.5,549031.375,707871.375,249722.109375,707779.3125,284793.15625,0.0
1772752907.1706326,707478.0625,405894.8125,519442.40625,548944.5,707870.375,249713.875,707486.5,284764.0,0.0
1772752907.1729624,707475.9375,405860.3125,519319.84375,548856.6875,707868.25,249705.296875,707182.5,284737.53125,0.0
1772752907.1729696,707474.3125,405831.34375,519194.9375,548768.8125,707866.4375,249694.296875,706866.6875,284708.125,0.0
1772752907.1787949,707474.5625,405809.71875,519073.78125,548684.6875,707866.625,249688.40625,706546.1875,284682.375,0.0
1772752907.1812823,707474.875,405788.0625,518955.59375,548599.75,707867.25,249682.765625,706216.5625,284656.375,0.0
1772752907.1852007,707477.1875,405760.09375,518838.09375,548517.75,707869.4375,249676.6875,705878.75,284633.65625,0.0
1772752907.205074,707477.5625,405741.21875,518721.96875,548437.25,707869.9375,249672.578125,705531.0,284609.5,0.0
1772752907.2050977,707478.1875,405716.71875,518602.875,548352.9375,707870.1875,249664.796875,705171.125,284582.0625,0.0
1772752907.2051055,707478.4375,405688.125,518478.78125,548262.9375,707870.75,249649.6875,704801.75,284552.75,0.0
1772752907.207542,707477.8125,405661.21875,518355.65625,548172.1875,707870.0625,249636.625,704429.9375,284523.15625,0.0
1772752907.2100327,707477.875,405637.6875,518234.53125,548084.8125,707869.75,249625.71875,704058.0625,284493.09375,0.0
1772752907.2125392,707476.375,405611.21875,518116.40625,548000.25,707868.3125,249615.984375,703686.6875,284465.9375,0.0
1772752907.2150593,707475.125,405581.0,517994.625,547914.0,707867.375,249604.453125,703314.125,284437.9375,0.0
1772752907.2175431,707474.5625,405546.3125,517871.875,547825.625,707866.5625,249595.328125,702944.8125,284407.90625,0.0
1772752907.2264545,707473.5,405513.6875,517748.40625,547734.0625,707865.375,249587.28125,702578.1875,284375.53125,0.0
1772752907.2293973,707474.25,405488.75,517630.65625,547650.3125,707866.4375,249581.296875,702218.0625,284347.8125,0.0
1772752907.229432,707471.875,405459.40625,517510.9375,547567.4375,707864.375,249571.09375,701858.75,284318.84375,0.0
1772752907.2313063,707472.875,405433.9375,517389.875,547481.3125,707865.375,249560.28125,701503.75,284289.96875,0.0
1772752907.245721,707474.9375,405412.21875,517273.5625,547399.8125,707867.6875,249555.0,701155.8125,284263.78125,0.0
1772752907.2457469,707475.6875,405377.15625,517152.15625,547315.0625,707868.5,249544.453125,700806.25,284234.28125,0.0
1772752907.2475352,707475.8125,405346.75,517030.21875,547230.0,707868.0625,249537.03125,700460.8125,284204.0625,0.0
1772752907.2513137,707475.9375,405329.9375,516913.09375,547149.1875,707868.0,249533.09375,700121.875,284178.84375,0.0
1772752907.2556372,707476.0,405305.90625,516794.96875,547067.5625,707868.25,249527.375,699783.375,284152.90625,0.0
1772752907.255654,707474.6875,405273.4375,516671.5,546980.3125,707866.5625,249517.28125,699441.9375,284119.5625,0.0
1772752907.2638352,707475.9375,405242.40625,516553.03125,546898.8125,707867.8125,249513.78125,699109.25,284095.6875,0.0
1772752907.2682161,707476.375,405219.0,516436.46875,546820.375,707868.4375,249508.875,698778.875,284073.0625,0.0
1772752907.2682345,707476.75,405188.34375,516314.0625,546737.0,707868.875,249501.1875,698444.5,284044.65625,0.0
1772752907.2715812,707477.0625,405167.21875,516197.46875,546655.125,707869.4375,249496.265625,698114.5625,284017.90625,0.0
1772752907.2853544,707476.9375,405140.5,516080.0625,546576.0625,707868.9375,249491.609375,697786.4375,283992.875,0.0
1772752907.2884617,707477.8125,405107.5,515962.59375,546496.0625,707869.875,249481.953125,697457.4375,283966.78125,0.0
1772752907.2884955,707477.375,405075.21875,515844.21875,546413.0,707869.875,249470.421875,697127.1875,283937.4375,0.0
1772752907.2903442,707475.5625,405049.125,515725.3125,546330.0625,707867.8125,249462.828125,696798.5625,283907.125,0.0
1772752907.2928846,707476.75,405024.625,515609.53125,546252.625,707868.6875,249455.5,696474.5625,283881.375,0.0
1772752907.2963765,707477.0,404993.78125,515490.71875,546172.125,707869.125,249444.671875,696148.625,283853.40625,0.0
1772752907.3157282,707477.5625,404959.625,515372.5,546090.9375,707869.9375,249435.640625,695823.9375,283824.875,0.0
1772752907.315761,707479.625,404929.3125,515252.25,546009.75,707871.8125,249426.078125,695498.0625,283793.59375,0.0
1772752907.3184888,707478.625,404903.9375,515134.59375,545933.1875,707870.6875,249416.953125,695175.0625,283765.5,0.0
1772752907.3185256,707478.0625,404883.1875,515021.84375,545860.125,707870.1875,249413.109375,694856.25,283741.90625,0.0
1772752907.3209307,707477.8125,404857.0625,514903.9375,545782.5,707869.75,249406.234375,694532.1875,283713.9375,0.0
1772752907.3209636,707478.0,404828.90625,514786.625,545705.0,707869.875,249398.625,694208.0,283684.6875,0.0
1772752907.3228605,707479.625,404800.84375,514670.9375,545630.25,707871.625,249389.515625,693885.5625,283655.1875,0.0
1772752907.3367307,707481.0,404766.78125,514556.3125,545556.6875,707873.1875,249381.90625,693566.0,283627.375,0.0
1772752907.339481,707480.6875,404732.96875,514437.3125,545478.0625,707872.375,249372.25,693245.125,283598.3125,0.0
1772752907.3395138,707480.25,404709.1875,514316.53125,545398.625,707872.4375,249363.765625,692923.3125,283568.0,0.0
1772752907.3414128,707478.625,404686.5,514196.0,545319.5,707870.9375,249354.109375,692600.1875,283536.625,0.0
1772752907.345332,707477.25,404658.5,514080.03125,545243.375,707869.5625,249345.171875,692277.875,283508.125,0.0
1772752907.3546684,707480.875,404632.75,513970.34375,545172.8125,707872.875,249340.6875,691963.3125,283485.9375,0.0
1772752907.3547037,707481.0,404599.0625,513854.65625,545097.5625,707872.875,249333.984375,691644.4375,283459.125,0.0
1772752907.356377,707479.5,404568.5625,513736.53125,545020.9375,707871.375,249324.78125,691321.9375,283430.6875,0.0
1772752907.367992,707477.6875,404545.6875,513623.09375,544947.6875,707870.0625,249316.203125,691002.0,283406.0,0.0
1772752907.3709111,707479.3125,404519.65625,513510.6875,544872.875,707871.4375,249307.4375,690683.5,283380.0,0.0
1772752907.3709428,707480.375,404484.15625,513395.53125,544796.4375,707872.25,249299.65625,690363.25,283351.65625,0.0
1772752907.372826,707480.875,404458.5,513279.9375,544719.4375,707872.4375,249291.25,690044.0625,283323.65625,0.0
1772752907.381523,707480.125,404434.4375,513167.28125,544644.0,707872.0,249283.65625,689728.375,283300.15625,0.0
1772752907.3847845,707479.9375,404405.125,513053.28125,544568.375,707872.25,249276.40625,689412.75,283276.46875,0.0
1772752907.3848112,707479.9375,404371.15625,512936.25,544491.0,707872.375,249270.953125,689097.1875,283251.15625,0.0
1772752907.3864892,707480.75,404346.84375,512819.75,544413.125,707873.0625,249263.453125,688780.5625,283222.625,0.0
1772752907.394106,707481.1875,404321.0,512704.96875,544336.6875,707873.0,249256.03125,688463.875,283194.75,0.0
1772752907.400919,707480.3125,404287.03125,512592.21875,544262.4375,707872.375,249247.71875,688149.0,283168.09375,0.0
1772752907.4009516,707482.25,404262.875,512482.25,544189.25,707874.25,249242.078125,687834.625,283142.875,0.0
1772752907.4028354,707482.25,404237.21875,512365.40625,544111.0625,707874.3125,249232.953125,687516.8125,283111.59375,0.0
1772752907.4167361,707483.1875,404205.84375,512250.6875,544035.9375,707875.375,249225.8125,687200.8125,283084.3125,0.0
1772752907.4198477,707483.8125,404174.90625,512136.875,543959.3125,707876.0,249218.296875,686884.4375,283055.8125,0.0
1772752907.4198797,707481.75,404141.09375,512020.71875,543881.1875,707874.0,249210.609375,686567.5,283026.5625,0.0
1772752907.4215412,707481.1875,404119.46875,511906.1875,543805.5625,707873.4375,249204.34375,686253.1875,282998.40625,0.0
1772752907.424128,707480.0625,404092.375,511792.21875,543728.9375,707872.4375,249195.765625,685937.6875,282969.625,0.0
1772752907.427914,707480.3125,404063.6875,511679.65625,543656.875,707872.5625,249189.859375,685624.6875,282946.1875,0.0
1772752907.4366417,707483.25,404031.5,511565.125,543584.6875,707875.0625,249183.875,685312.3125,282922.125,0.0
1772752907.439453,707484.0,404005.9375,511452.09375,543509.8125,707875.5625,249178.515625,685000.0,282894.5,0.0
1772752907.4394827,707484.875,403981.5,511339.4375,543436.75,707876.5625,249170.90625,684685.375,282865.4375,0.0
1772752907.450616,707486.5,403964.34375,511231.1875,543367.875,707878.1875,249167.25,684374.875,282843.09375,0.0
1772752907.4532754,707486.375,403939.21875,511119.0625,543296.875,707878.1875,249164.109375,684063.625,282819.125,0.0
1772752907.4533176,707485.5625,403904.0,511001.3125,543222.4375,707877.75,249158.578125,683749.9375,282793.46875,0.0
1772752907.4579492,707487.9375,403879.78125,510887.40625,543149.9375,707880.125,249150.796875,683435.75,282766.84375,0.0
1772752907.461586,707489.0,403855.28125,510776.1875,543078.3125,707881.375,249144.890625,683124.4375,282740.625,0.0
1772752907.4727309,707487.125,403821.3125,510661.46875,543005.6875,707879.25,249139.625,682812.375,282714.4375,0.0
1772752907.4757147,707484.0625,403789.375,510544.34375,542929.5,707876.375,249131.75,682536.5625,282684.84375,0.0
1772752907.4757457,707480.6875,403747.09375,510410.96875,542835.8125,707873.0,249105.375,682468.875,282627.90625,0.0
1772752907.4777188,707473.9375,403696.5,510273.90625,542738.9375,707865.75,249072.828125,682476.0625,282561.28125,0.0
1772752907.4893277,707469.25,403658.03125,510149.90625,542655.6875,707861.5625,249051.734375,682482.8125,282508.8125,0.0
1772752907.489359,707467.0,403621.28125,510027.125,542574.875,707859.5,249033.671875,682488.1875,282456.9375,0.0
1772752907.4942536,707466.875,403578.03125,509900.71875,542490.625,707859.0625,249016.328125,682490.0,282404.28125,0.0
1772752907.4967012,707466.125,403546.5625,509784.9375,542413.5,707857.9375,249005.59375,682496.625,282358.59375,0.0
1772752907.4996765,707465.625,403517.65625,509670.3125,542340.0,707857.9375,248994.78125,682503.75,282314.875,0.0
1772752907.4997077,707463.6875,403477.25,509548.90625,542261.9375,707856.0,248979.9375,682508.125,282268.46875,0.0
1772752907.51513,707461.5625,403445.6875,509428.1875,542181.1875,707853.5625,248965.546875,682508.375,282219.3125,0.0
1772752907.5184023,707460.625,403413.34375,509312.59375,542106.4375,707852.4375,248957.859375,682514.9375,282177.03125,0.0
1772752907.5184357,707458.5,403378.03125,509194.75,542028.375,707850.4375,248947.75,682516.25,282133.65625,0.0
1772752907.5203693,707456.8125,403355.21875,509081.84375,541955.0625,707848.9375,248940.59375,682519.125,282093.5,0.0
1772752907.5228271,707457.4375,403328.40625,508967.75,541881.5,707849.625,248932.28125,682519.75,282054.53125,0.0
1772752907.5267437,707456.375,403293.78125,508849.5625,541805.4375,707848.875,248921.90625,682516.625,282013.5,0.0
1772752907.5384636,707456.6875,403261.96875,508736.90625,541736.125,707849.125,248915.65625,682519.75,281977.65625,0.0
1772752907.5384996,707457.25,403229.875,508621.75,541663.4375,707849.625,248905.734375,682523.0625,281938.3125,0.0
1772752907.5408988,707456.625,403202.0625,508507.65625,541590.3125,707848.875,248895.890625,682525.75,281898.34375,0.0
1772752907.5409372,707455.375,403169.78125,508390.375,541514.125,707847.6875,248880.703125,682521.625,281853.1875,0.0
1772752907.5430152,707455.0,403142.15625,508278.6875,541442.875,707847.25,248871.21875,682521.0,281813.03125,0.0
1772752907.551708,707455.1875,403119.0,508170.59375,541373.3125,707847.5,248865.5,682524.0625,281777.09375,0.0
1772752907.553903,707456.5,403080.75,508051.40625,541296.0625,707848.5625,248853.25,682517.5,281734.09375,0.0
1772752907.5576549,707457.6875,403055.4375,507937.25,541224.0625,707849.9375,248844.578125,682515.8125,281694.65625,0.0
1772752907.5715797,707457.875,403038.28125,507829.0625,541156.125,707850.0,248840.46875,682516.875,281659.25,0.0
1772752907.574672,707457.0,403007.4375,507713.46875,541084.1875,707849.1875,248832.0625,682512.4375,281620.1875,0.0
1772752907.574705,707456.6875,402975.0625,507597.5,541013.8125,707848.875,248822.3125,682507.25,281579.96875,0.0
1772752907.576825,707455.875,402946.90625,507481.0,540942.0,707848.0625,248811.5,682500.5625,281537.5,0.0
1772752907.5791156,707456.25,402926.15625,507372.375,540875.375,707848.875,248805.765625,682498.375,281499.84375,0.0
1772752907.5826316,707457.25,402896.375,507260.625,540804.9375,707850.1875,248797.28125,682494.125,281462.65625,0.0
1772752907.592216,707457.9375,402860.4375,507144.9375,540734.5,707850.4375,248788.703125,682487.8125,281423.59375,0.0
1772752907.5922654,707456.6875,402825.03125,507028.4375,540664.125,707849.1875,248781.09375,682479.375,281383.09375,0.0
1772752907.5938559,707456.375,402801.96875,506918.28125,540594.9375,707848.875,248777.15625,682473.8125,281347.5,0.0
1772752907.6016872,707457.5,402776.40625,506809.03125,540526.25,707850.0,248773.59375,682469.0625,281313.0,0.0
1772752907.6038885,707457.75,402751.53125,506700.5625,540460.125,707849.8125,248768.765625,682463.6875,281281.0625,0.0
1772752907.6078336,707459.6875,402721.21875,506589.0,540392.625,707851.875,248762.5,682457.8125,281244.9375,0.0
1772752907.614456,707460.3125,402694.3125,506475.96875,540322.875,707852.875,248753.296875,682449.1875,281205.6875,0.0
1772752907.6144936,707460.5625,402670.375,506365.03125,540256.375,707853.0625,248741.9375,682440.875,281168.78125,0.0
1772752907.6207726,707460.375,402635.03125,506253.53125,540187.75,707853.0625,248731.390625,682431.9375,281134.1875,0.0
1772752907.6208308,707463.5625,402608.5,506144.09375,540121.5,707856.4375,248725.21875,682424.625,281100.8125,0.0
1772752907.6228397,707464.125,402584.4375,506035.375,540058.0625,707856.5625,248719.140625,682418.9375,281068.28125,0.0
1772752907.6315129,707465.1875,402557.625,505930.15625,539996.625,707857.6875,248714.671875,682414.5,281038.6875,0.0
1772752907.6357265,707467.0625,402538.3125,505829.21875,539937.875,707859.75,248711.359375,682413.0,281010.875,0.0
1772752907.6357582,707469.125,402513.0,505724.5,539874.5625,707861.5625,248707.421875,682408.4375,280978.34375,0.0
1772752907.6603582,707470.5,402496.46875,505619.1875,539810.125,707863.125,248702.0625,682400.375,280944.53125,0.0
1772752907.6628299,707471.375,402470.96875,505511.09375,539745.5625,707864.0625,248696.78125,682391.5625,280911.90625,0.0
1772752907.6653607,707472.8125,402443.1875,505405.40625,539678.9375,707865.5,248692.40625,682384.125,280881.4375,0.0
1772752907.667716,707471.4375,402418.84375,505296.34375,539608.4375,707864.0625,248684.453125,682373.25,280845.40625,0.0
1772752907.6703563,707468.0,402382.5625,505175.09375,539529.0,707860.4375,248665.9375,682350.4375,280798.625,0.0
1772752907.6728287,707466.625,402346.25,505055.40625,539453.75,707858.75,248651.546875,682329.5,280754.09375,0.0
1772752907.675465,707463.0625,402310.0625,504935.40625,539376.9375,707855.3125,248633.75,682306.625,280709.21875,0.0
1772752907.677895,707461.8125,402276.25,504820.25,539303.875,707854.3125,248620.4375,682285.5,280668.09375,0.0
1772752907.6801207,707465.0,402250.875,504712.53125,539238.875,707857.3125,248619.359375,682274.3125,280636.53125,0.0
1772752907.6832056,707466.5625,402225.375,504607.90625,539176.0625,707858.875,248617.578125,682265.1875,280606.5,0.0
1772752907.6832185,707465.125,402200.53125,504500.625,539110.4375,707857.4375,248614.53125,682251.8125,280572.53125,0.0
1772752907.6918993,707465.8125,402172.375,504390.5625,539042.375,707858.25,248609.25,682236.25,280538.46875,0.0
1772752907.6919162,707466.75,402144.46875,504279.875,538974.0,707859.3125,248602.015625,682219.5,280503.5,0.0
1772752907.6938293,707467.875,402117.03125,504171.0625,538909.8125,707860.3125,248595.578125,682205.0625,280471.5,0.0
1772752907.697558,707466.4375,402091.625,504063.78125,538848.1875,707859.125,248591.109375,682192.625,280443.15625,0.0
1772752907.7082717,707467.8125,402071.78125,503955.78125,538783.3125,707860.75,248583.0625,682178.875,280411.15625,0.0
1772752907.7082884,707466.375,402036.71875,503840.53125,538710.875,707858.875,248569.65625,682159.375,280372.15625,0.0
1772752907.7102559,707466.1875,402003.84375,503729.75,538643.0625,707858.5625,248560.0,682140.375,280337.90625,0.0
1772752907.7166185,707467.0625,401980.6875,503625.0625,538580.75,707859.1875,248554.1875,682126.875,280308.59375,0.0
1772752907.7191265,707467.6875,401956.625,503519.03125,538516.3125,707859.75,248546.40625,682111.4375,280277.21875,0.0
1772752907.7229047,707468.0625,401924.71875,503410.75,538450.5,707860.375,248538.71875,682093.0,280243.78125,0.0
1772752907.732015,707468.25,401896.09375,503302.84375,538387.1875,707860.4375,248532.90625,682077.375,280209.34375,0.0
1772752907.7320638,707468.625,401872.40625,503196.1875,538324.4375,707861.125,248528.609375,682062.5,280177.6875,0.0
1772752907.73663,707468.875,401841.65625,503086.90625,538256.875,707861.75,248520.390625,682044.125,280145.5,0.0
1772752907.7390864,707470.3125,401814.65625,502980.34375,538191.125,707862.8125,248513.046875,682026.75,280113.78125,0.0
1772752907.7426963,707470.8125,401791.84375,502872.0625,538127.0625,707863.3125,248507.25,682008.0,280079.71875,0.0
1772752907.751956,707470.5625,401760.90625,502763.53125,538063.1875,707863.125,248500.53125,681991.8125,280048.25,0.0
1772752907.7519894,707468.875,401727.84375,502653.75,537996.75,707861.375,248493.109375,681972.875,280016.6875,0.0
1772752907.7539089,707469.875,401703.96875,502546.46875,537932.125,707862.4375,248487.578125,681954.6875,279986.09375,0.0
1772752907.7577875,707470.625,401675.09375,502434.78125,537862.375,707863.25,248478.453125,681931.3125,279947.375,0.0
1772752907.7771945,707470.8125,401652.71875,502326.0625,537797.125,707862.8125,248470.765625,681912.0625,279911.71875,0.0
1772752907.7772307,707471.5625,401624.03125,502217.4375,537733.625,707863.5,248463.703125,681893.75,279878.8125,0.0
1772752907.7798345,707471.4375,401588.8125,502106.21875,537663.125,707863.9375,248453.859375,681868.0,279841.09375,0.0
1772752907.7799044,707471.625,401566.0,502000.0,537595.125,707864.875,248447.96875,681847.4375,279808.34375,0.0
1772752907.781329,707471.875,401545.96875,501894.6875,537529.0625,707864.5,248442.875,681828.3125,279777.96875,0.0
1772752907.784186,707471.875,401515.125,501786.59375,537460.75,707864.375,248434.375,681805.9375,279745.78125,0.0
1772752907.7937636,707470.5,401478.125,501674.03125,537389.4375,707863.125,248425.609375,681780.875,279711.625,0.0
1772752907.793822,707470.1875,401442.28125,501559.65625,537316.9375,707863.0625,248417.484375,681753.375,279670.84375,0.0
1772752907.7996917,707470.3125,401405.96875,501448.28125,537246.375,707863.0625,248408.09375,681728.0,279632.40625,0.0
1772752907.7997248,707470.375,401378.15625,501341.6875,537177.8125,707863.3125,248399.328125,681704.75,279601.03125,0.0
1772752907.815746,707470.0,401354.125,501236.03125,537108.125,707862.6875,248392.984375,681682.9375,279568.46875,0.0
1772752907.8157763,707469.9375,401321.9375,501128.28125,537037.3125,707862.5,248385.734375,681660.1875,279534.5,0.0
1772752907.819143,707470.375,401285.28125,501016.0,536960.1875,707863.0625,248374.03125,681632.9375,279497.3125,0.0
1772752907.8191795,707469.3125,401255.3125,500905.375,536886.625,707862.25,248367.328125,681609.5,279465.5625,0.0
1772752907.819191,707470.625,401230.28125,500798.09375,536814.5625,707863.875,248361.78125,681587.0,279437.84375,0.0
1772752907.8219817,707472.625,401203.625,500689.90625,536738.8125,707865.75,248356.0625,681563.5625,279408.875,0.0
1772752907.8220131,707472.0,401176.09375,500578.78125,536660.875,707865.0,248348.71875,681537.1875,279376.0625,0.0
1772752907.8353229,707472.375,401144.1875,500467.125,536581.5625,707865.375,248340.046875,681511.3125,279341.65625,0.0
1772752907.839688,707473.9375,401117.8125,500360.625,536505.8125,707866.75,248336.390625,681489.875,279313.40625,0.0
1772752907.8397195,707472.4375,401095.0,500253.4375,536426.4375,707865.5,248334.234375,681465.375,279280.3125,0.0
1772752907.843501,707471.0,401071.125,500145.4375,536346.0625,707863.875,248328.609375,681437.5625,279245.1875,0.0
1772752907.8435311,707471.75,401043.4375,500036.625,536266.9375,707864.875,248321.71875,681411.5625,279213.28125,0.0
1772752907.8613493,707474.4375,401018.5625,499935.78125,536193.8125,707867.4375,248321.640625,681392.0625,279187.96875,0.0
1772752907.864406,707474.9375,400989.96875,499829.09375,536113.6875,707868.4375,248316.8125,681367.5,279157.03125,0.0
1772752907.8644216,707475.75,400962.875,499721.375,536033.5625,707868.6875,248309.828125,681343.4375,279125.5625,0.0
1772752907.8669076,707474.75,400947.5625,499618.90625,535957.6875,707867.25,248304.203125,681321.8125,279099.4375,0.0
1772752907.8669243,707475.0625,400922.28125,499513.84375,535875.4375,707867.625,248294.359375,681294.375,279067.09375,0.0
1772752907.875095,707476.0,400896.53125,499408.625,535795.5625,707868.9375,248285.609375,681269.375,279036.59375,0.0
1772752907.8794167,707475.6875,400870.96875,499301.34375,535713.5,707868.4375,248274.34375,681240.625,279000.125,0.0
1772752907.8794322,707475.75,400838.59375,499193.6875,535632.5,707868.875,248263.78125,681212.625,278968.46875,0.0
1772752907.8813457,707475.0625,400811.6875,499087.5625,535552.1875,707868.6875,248257.96875,681186.1875,278939.875,0.0
1772752907.8926475,707475.125,400798.09375,498988.875,535478.25,707868.625,248256.1875,681165.0625,278913.3125,0.0
1772752907.8959324,707476.0,400773.875,498887.5625,535400.5625,707869.3125,248248.40625,681139.875,278882.71875,0.0
1772752907.8959656,707479.3125,400746.21875,498785.09375,535325.125,707872.4375,248240.546875,681116.25,278853.5,0.0
1772752907.8977609,707478.875,400718.6875,498680.9375,535246.4375,707871.8125,248229.453125,681088.1875,278821.125,0.0
1772752907.9040673,707477.875,400694.28125,498577.59375,535168.75,707870.9375,248220.6875,681060.1875,278790.46875,0.0
1772752907.9132905,707477.875,400670.78125,498476.03125,535092.75,707870.75,248213.0,681033.625,278761.40625,0.0
1772752907.913316,707477.6875,400638.5,498370.6875,535014.75,707870.6875,248204.59375,681004.5,278730.8125,0.0
1772752907.9153805,707477.625,400611.21875,498265.8125,534935.0,707870.75,248194.046875,680973.75,278699.34375,0.0
1772752907.9188857,707476.8125,400588.34375,498164.4375,534858.125,707869.875,248187.34375,680945.75,278670.9375,0.0
1772752907.9257066,707476.625,400564.75,498061.96875,534781.0,707869.6875,248178.140625,680916.6875,278640.53125,0.0
1772752907.925733,707475.3125,400538.0,497957.28125,534703.0,707868.625,248169.015625,680886.5,278608.96875,0.0
1772752907.9278798,707475.6875,400503.03125,497852.40625,534627.4375,707868.875,248160.34375,680856.625,278579.1875,0.0
1772752907.931595,707475.75,400480.15625,497752.1875,534554.3125,707868.875,248154.359375,680830.0625,278551.3125,0.0
1772752907.9401755,707476.625,400460.40625,497653.65625,534482.0,707869.9375,248149.609375,680806.125,278523.65625,0.0
1772752907.9428575,707475.9375,400427.84375,497547.4375,534403.6875,707869.3125,248137.1875,680775.9375,278489.6875,0.0
1772752907.946504,707474.5625,400398.71875,497442.3125,534323.1875,707867.4375,248123.859375,680742.4375,278458.75,0.0
1772752907.9557228,707474.9375,400375.28125,497340.90625,534248.125,707868.1875,248113.578125,680714.125,278432.46875,0.0
1772752907.9557552,707474.25,400349.90625,497239.6875,534172.625,707867.625,248106.796875,680687.125,278405.84375,0.0
1772752907.9621644,707475.0625,400320.9375,497135.71875,534095.5,707868.6875,248098.921875,680658.5,278374.4375,0.0
1772752907.962198,707476.9375,400294.8125,497032.09375,534022.0,707870.1875,248091.234375,680630.25,278343.5,0.0
1772752907.9676328,707476.5625,400269.4375,496929.90625,533949.3125,707869.875,248083.28125,680604.3125,278314.5625,0.0
1772752907.9821727,707477.0625,400239.65625,496826.28125,533873.0625,707870.6875,248073.890625,680575.1875,278286.03125,0.0
1772752907.9822028,707477.1875,400214.0,496720.78125,533794.125,707870.5625,248065.578125,680541.875,278253.84375,0.0
1772752907.9852977,707477.375,400185.375,496617.4375,533720.0625,707870.75,248057.078125,680511.6875,278222.46875,0.0
1772752907.9853332,707476.3125,400163.84375,496518.46875,533650.9375,707869.875,248051.625,680485.1875,278196.4375,0.0
1772752907.9853437,707476.1875,400135.21875,496412.5,533574.6875,707869.875,248041.25,680452.75,278165.59375,0.0
1772752907.9878075,707476.8125,400108.5,496304.875,533499.125,707870.5,248032.671875,680418.0625,278134.03125,0.0
1772752907.9917057,707478.0,400077.125,496202.125,533424.3125,707871.1875,248026.0625,680387.5,278104.34375,0.0
1772752908.0029328,707479.875,400044.5625,496100.03125,533347.5,707873.25,248020.0625,680355.8125,278074.84375,0.0
1772752908.0059538,707479.125,400023.65625,495998.09375,533274.0,707872.5625,248013.984375,680326.6875,278048.90625,0.0
1772752908.0059853,707480.875,400002.09375,495894.84375,533200.6875,707874.3125,248008.796875,680297.25,278020.5,0.0
1772752908.0115592,707481.625,399983.40625,495795.875,533131.125,707874.9375,248007.640625,680269.9375,277994.03125,0.0
1772752908.0140176,707481.375,399961.25,495695.03125,533059.1875,707874.9375,248003.609375,680240.125,277966.65625,0.0
1772752908.0205421,707479.9375,399934.5,495591.75,532986.3125,707873.5,247997.625,680208.6875,277939.125,0.0
1772752908.022751,707481.0,399903.21875,495486.0625,532910.9375,707874.4375,247987.078125,680174.4375,277908.90625,0.0
1772752908.02536,707480.6875,399881.65625,495382.53125,532837.375,707874.0625,247978.125,680142.0,277877.625,0.0
1772752908.0341947,707481.3125,399859.40625,495282.125,532767.1875,707874.75,247971.15625,680112.3125,277850.96875,0.0
1772752908.0369875,707482.0,399837.21875,495184.40625,532697.625,707875.3125,247965.703125,680083.625,277825.3125,0.0
1772752908.0370188,707481.5625,399809.4375,495081.34375,532624.8125,707874.875,247956.046875,680050.4375,277794.65625,0.0
1772752908.0453515,707480.5,399786.0,494978.5,532553.875,707873.3125,247948.8125,680018.6875,277765.0625,0.0
1772752908.0482972,707481.3125,399763.125,494881.3125,532485.75,707874.25,247943.703125,679989.0625,277739.21875,0.0
1772752908.0483308,707481.375,399730.84375,494781.71875,532414.625,707874.5,247934.859375,679956.3125,277711.9375,0.0
1772752908.0566032,707480.6875,399704.5625,494683.5625,532346.0,707873.8125,247926.984375,679925.1875,277684.40625,0.0
1772752908.0610473,707480.75,399683.0,494582.875,532273.5,707874.0,247919.84375,679890.75,277653.90625,0.0
1772752908.0610788,707481.375,399652.53125,494480.59375,532202.6875,707874.9375,247911.25,679856.6875,277624.78125,0.0
1772752908.0639224,707481.8125,399629.0,494381.09375,532133.25,707875.6875,247904.1875,679826.4375,277599.125,0.0
1772752908.0730987,707480.125,399600.9375,494277.8125,532060.6875,707873.8125,247895.078125,679792.0625,277570.78125,0.0
1772752908.0794604,707481.3125,399572.59375,494176.4375,531989.4375,707875.375,247888.8125,679760.1875,277543.84375,0.0
1772752908.0794895,707480.6875,399541.84375,494073.25,531917.125,707874.9375,247879.78125,679724.6875,277515.34375,0.0
1772752908.0816424,707479.3125,399518.84375,493973.9375,531845.75,707873.4375,247870.84375,679690.3125,277487.625,0.0
1772752908.085258,707480.875,399497.5625,493878.96875,531781.9375,707874.9375,247867.890625,679660.375,277465.375,0.0
1772752908.0993063,707481.3125,399472.0,493778.125,531714.125,707875.125,247861.8125,679626.8125,277438.71875,0.0
1772752908.1022828,707479.9375,399442.21875,493674.25,531641.75,707873.5,247850.734375,679591.9375,277408.6875,0.0
1772752908.1023347,707478.875,399411.9375,493573.3125,531570.0,707872.5625,247840.53125,679557.25,277379.0,0.0
1772752908.1041086,707480.875,399393.5,493475.5,531502.0625,707874.625,247836.421875,679524.625,277354.21875,0.0
1772752908.106397,707481.75,399375.28125,493376.4375,531434.0,707875.375,247831.234375,679492.0625,277330.28125,0.0
1772752908.115219,707480.5,399347.8125,493273.96875,531363.0625,707874.3125,247823.734375,679456.875,277300.5,0.0
1772752908.1221626,707481.0,399317.40625,493169.8125,531291.0625,707874.75,247816.84375,679420.75,277271.25,0.0
1772752908.1221952,707480.375,399281.46875,493063.3125,531215.875,707874.5,247803.875,679382.625,277238.90625,0.0
1772752908.1241326,707479.9375,399258.15625,492960.5,531145.875,707874.0625,247795.828125,679348.3125,277208.9375,0.0
1772752908.1276126,707481.125,399238.21875,492859.28125,531072.3125,707875.25,247787.875,679312.75,277177.65625,0.0
1772752908.1369288,707480.375,399205.65625,492754.4375,530997.25,707874.0625,247776.515625,679273.1875,277144.65625,0.0
1772752908.139922,707481.625,399182.5,492657.875,530931.3125,707875.5,247773.921875,679241.75,277119.96875,0.0
1772752908.139975,707480.6875,399151.125,492557.1875,530860.125,707874.625,247767.046875,679206.5,277092.875,0.0
1772752908.141417,707479.9375,399125.65625,492454.65625,530786.8125,707873.6875,247758.1875,679166.1875,277062.75,0.0
1772752908.1559289,707480.6875,399107.3125,492357.46875,530719.5,707874.6875,247751.125,679130.625,277037.28125,0.0
1772752908.1559596,707479.6875,399083.8125,492259.46875,530651.4375,707873.6875,247743.4375,679096.0,277011.71875,0.0
1772752908.1576712,707480.5,399053.21875,492159.15625,530581.1875,707874.3125,247737.984375,679060.4375,276985.15625,0.0
1772752908.1603646,707482.125,399030.875,492055.625,530510.4375,707875.6875,247731.640625,679024.5625,276955.84375,0.0
1772752908.162947,707480.875,399011.75,491954.40625,530440.875,707874.9375,247723.40625,678988.625,276927.65625,0.0
1772752908.1667411,707482.1875,398987.96875,491855.4375,530371.1875,707876.125,247718.21875,678952.125,276901.75,0.0
1772752908.1809912,707481.5625,398960.59375,491758.78125,530302.25,707875.875,247712.140625,678920.0625,276879.375,0.0
1772752908.181025,707480.875,398928.84375,491654.0,530227.5,707874.9375,247700.4375,678880.0,276847.1875,0.0
1772752908.1833274,707482.1875,398903.1875,491553.25,530155.75,707875.875,247692.03125,678840.6875,276817.6875,0.0
1772752908.1833577,707480.0625,398877.1875,491453.5625,530087.3125,707874.0,247682.640625,678804.25,276792.125,0.0
1772752908.1851928,707481.125,398857.78125,491358.34375,530025.25,707874.75,247672.890625,678769.5625,276769.875,0.0
1772752908.187986,707481.625,398835.59375,491262.40625,529961.75,707876.0,247665.203125,678734.5625,276746.71875,0.0
1772752908.1963935,707482.25,398809.78125,491165.125,529896.5,707876.8125,247657.4375,678699.25,276722.375,0.0
1772752908.2010825,707482.75,398779.09375,491067.75,529830.8125,707877.4375,247649.828125,678663.875,276699.3125,0.0
1772752908.201133,707482.25,398754.59375,490970.75,529764.6875,707876.9375,247642.046875,678626.0625,276674.28125,0.0
1772752908.2066152,707482.625,398731.8125,490873.5625,529698.0,707877.1875,247633.640625,678588.0,276646.9375,0.0
1772752908.2160616,707484.0625,398710.15625,490781.3125,529636.5,707878.8125,247631.046875,678555.75,276625.46875,0.0
1772752908.2161136,707485.3125,398683.875,490687.25,529574.625,707879.75,247626.234375,678524.0625,276604.0,0.0
1772752908.2176433,707485.5625,398656.625,490587.09375,529507.9375,707880.125,247616.484375,678485.375,276576.375,0.0
1772752908.2279449,707486.75,398635.15625,490488.21875,529443.625,707881.6875,247611.296875,678446.4375,276549.75,0.0
1772752908.2310324,707487.625,398614.5,490387.375,529377.75,707882.625,247605.84375,678405.9375,276521.84375,0.0
1772752908.23107,707486.5625,398582.0625,490285.28125,529310.875,707881.0625,247596.0,678366.625,276493.875,0.0
1772752908.232666,707485.875,398554.0625,490185.65625,529245.4375,707880.25,247588.40625,678327.9375,276466.78125,0.0
1772752908.235488,707485.25,398539.125,490091.96875,529185.0,707879.25,247584.5625,678292.6875,276443.78125,0.0
1772752908.2439551,707485.125,398510.96875,489994.78125,529119.5625,707879.125,247579.375,678257.0,276420.375,0.0
1772752908.2466218,707485.3125,398478.34375,489898.59375,529057.4375,707879.75,247575.359375,678220.4375,276395.34375,0.0
1772752908.2503593,707484.6875,398452.9375,489801.75,528995.0,707879.0,247569.71875,678181.3125,276369.15625,0.0
1772752908.2595444,707485.5625,398433.625,489707.875,528933.25,707880.0625,247565.96875,678143.625,276343.9375,0.0
1772752908.259595,707485.5625,398404.75,489608.375,528865.875,707880.25,247556.578125,678103.0625,276314.78125,0.0
1772752908.2616067,707485.6875,398371.84375,489507.96875,528798.25,707880.75,247546.125,678063.0625,276285.1875,0.0
1772752908.2733915,707487.0,398345.9375,489409.875,528731.375,707882.1875,247537.890625,678022.5,276255.78125,0.0
1772752908.2734365,707486.6875,398329.46875,489319.5,528671.25,707881.6875,247533.0625,677988.0,276234.6875,0.0
1772752908.298571,707487.8125,398304.875,489225.8125,528610.625,707883.1875,247530.203125,677953.5,276212.78125,0.0
1772752908.2986195,707488.375,398281.375,489130.84375,528548.0,707883.25,247526.0,677915.0,276188.8125,0.0
1772752908.3002772,707488.25,398255.625,489033.65625,528482.0,707882.8125,247518.046875,677874.4375,276162.4375,0.0
1772752908.3040648,707488.0625,398227.28125,488937.09375,528418.25,707882.625,247512.140625,677836.5,276137.40625,0.0
1772752908.3040977,707489.0,398201.09375,488841.09375,528355.5,707883.5625,247506.59375,677798.0,276111.375,0.0
1772752908.3041067,707489.3125,398182.5625,488749.625,528295.8125,707883.625,247502.578125,677762.75,276088.65625,0.0
1772752908.30758,707489.1875,398160.0625,488655.75,528235.9375,707883.6875,247496.046875,677726.8125,276064.34375,0.0
1772752908.3076122,707489.625,398133.21875,488559.625,528174.3125,707884.0,247489.609375,677688.625,276038.0625,0.0
1772752908.307622,707491.3125,398112.40625,488466.65625,528116.375,707885.6875,247486.390625,677653.625,276014.375,0.0
1772752908.310326,707491.1875,398084.78125,488367.9375,528050.125,707886.125,247477.28125,677609.4375,275984.25,0.0
1772752908.3127124,707490.5625,398054.71875,488270.65625,527987.8125,707885.4375,247469.9375,677566.8125,275958.75,0.0
1772752908.3189445,707492.5,398030.75,488180.625,527931.25,707887.125,247465.5625,677531.75,275937.65625,0.0
1772752908.333492,707493.75,398007.59375,488091.125,527874.3125,707888.375,247460.734375,677497.0625,275915.40625,0.0
1772752908.3335252,707495.5,397988.28125,488001.71875,527817.9375,707889.875,247457.78125,677461.1875,275892.5,0.0
1772752908.3357358,707496.5,397972.1875,487912.3125,527762.5,707891.0625,247455.640625,677425.8125,275869.96875,0.0
1772752908.3357675,707498.25,397952.4375,487825.59375,527709.3125,707892.8125,247456.890625,677392.6875,275851.84375,0.0
1772752908.344682,707498.75,397931.34375,487733.5,527651.6875,707893.5625,247453.578125,677355.4375,275830.1875,0.0
1772752908.344715,707500.8125,397908.71875,487639.53125,527593.75,707895.6875,247450.546875,677317.375,275807.9375,0.0
1772752908.3466127,707501.0625,397883.0625,487545.75,527532.9375,707895.8125,247444.375,677277.8125,275784.15625,0.0
1772752908.3501291,707500.0625,397847.125,487444.71875,527465.875,707894.8125,247430.515625,677230.0625,275755.4375,0.0
1772752908.3541455,707495.6875,397814.65625,487339.5,527392.375,707890.4375,247410.84375,677176.0,275719.40625,0.0
1772752908.3686333,707492.5,397776.65625,487232.5625,527319.0,707887.5,247393.234375,677123.0,275681.25,0.0
1772752908.3686848,707493.375,397750.03125,487140.90625,527261.375,707888.875,247391.265625,677087.125,275660.6875,0.0
1772752908.3701491,707495.25,397732.875,487054.1875,527206.25,707890.4375,247393.234375,677053.875,275643.15625,0.0
1772752908.3728473,707496.75,397709.34375,486962.8125,527147.4375,707891.75,247386.796875,677014.6875,275619.8125,0.0
1772752908.3755095,707497.8125,397691.09375,486870.1875,527085.5625,707892.5625,247376.953125,676973.1875,275593.96875,0.0
1772752908.3846776,707498.125,397671.875,486780.34375,527026.0625,707893.125,247371.234375,676935.9375,275572.71875,0.0
1772752908.3847084,707498.125,397643.1875,486684.125,526964.75,707893.375,247362.828125,676894.625,275546.78125,0.0
1772752908.387221,707497.75,397611.625,486586.5,526903.3125,707893.0,247355.953125,676852.3125,275520.75,0.0
1772752908.3872557,707496.5,397590.0625,486492.90625,526843.9375,707891.3125,247351.03125,676811.375,275496.71875,0.0
1772752908.3991067,707495.6875,397567.90625,486396.25,526780.0625,707890.875,247340.21875,676766.5,275467.84375,0.0
1772752908.401714,707495.125,397541.96875,486301.90625,526721.0,707890.125,247331.09375,676726.875,275445.5625,0.0
1772752908.40481,707496.75,397511.3125,486208.3125,526659.9375,707891.9375,247321.4375,676687.125,275423.46875,0.0
1772752908.4048507,707497.1875,397492.1875,486114.78125,526597.375,707892.375,247312.5,676643.6875,275398.09375,0.0
1772752908.4067156,707496.9375,397468.46875,486022.53125,526537.75,707892.1875,247304.890625,676602.25,275373.15625,0.0
1772752908.4178445,707496.6875,397442.90625,485930.4375,526480.25,707892.0,247299.625,676562.1875,275349.71875,0.0
1772752908.4209328,707497.8125,397413.3125,485836.90625,526422.5625,707893.0,247293.28125,676522.5,275328.0,0.0
1772752908.420966,707497.8125,397387.03125,485743.84375,526362.75,707893.25,247284.328125,676483.0,275303.6875,0.0
1772752908.422862,707496.75,397366.90625,485652.75,526306.25,707892.125,247277.453125,676442.6875,275279.28125,0.0
1772752908.4317064,707495.0,397342.96875,485559.125,526248.4375,707890.4375,247270.296875,676400.5625,275254.25,0.0
1772752908.440215,707496.9375,397313.8125,485468.03125,526190.3125,707892.1875,247263.5,676361.9375,275234.21875,0.0
1772752908.442742,707500.3125,397289.40625,485377.71875,526134.8125,707895.8125,247259.84375,676325.1875,275215.15625,0.0
1772752908.445517,707500.0625,397275.71875,485287.0625,526080.3125,707895.5,247255.546875,676286.0625,275192.375,0.0
1772752908.4478607,707500.625,397250.59375,485195.6875,526024.1875,707895.875,247247.3125,676247.9375,275171.71875,0.0
1772752908.452351,707500.4375,397225.9375,485102.4375,525967.3125,707895.6875,247237.9375,676207.625,275150.15625,0.0
1772752908.4524276,707497.625,397200.96875,485007.84375,525907.625,707893.1875,247225.953125,676162.0,275126.125,0.0
