timestamps,Fz,C3,Cz,C4,Pz,PO7,Oz,PO8,stim
1772754128.4211736,701538.875,400647.625,704864.0,707118.375,707056.25,234971.390625,462162.3125,237528.609375,0.0
1772754128.43291,701414.5625,400632.40625,704790.25,707118.75,707056.875,234968.34375,462080.59375,237517.515625,0.0
1772754128.4329596,701288.25,400614.09375,704721.5625,707120.1875,707058.375,234971.03125,462004.9375,237511.703125,0.0
1772754128.4378347,701169.6875,400601.46875,704652.0,707120.4375,707057.9375,234970.21875,461930.03125,237503.390625,0.0
1772754128.4378843,701054.0,400590.5625,704584.5,707120.375,707057.875,234969.0625,461855.09375,237495.609375,0.0
1772754128.4397788,700939.9375,400582.34375,704517.5625,707121.5,707059.375,234967.453125,461780.53125,237487.65625,0.0
1772754128.442,700821.0,400570.46875,704445.125,707119.125,707057.4375,234963.25,461702.40625,237474.59375,0.0
1772754128.4535418,700696.75,400554.46875,704373.9375,707118.75,707057.625,234962.359375,461625.875,237465.03125,0.0
1772754128.4565058,700576.1875,400540.15625,704299.3125,707119.75,707058.25,234960.125,461549.25,237457.796875,0.0
1772754128.45657,700463.8125,400530.75,704225.8125,707118.9375,707057.625,234958.515625,461471.625,237451.171875,0.0
1772754128.4586296,700354.5,400524.40625,704156.0625,707118.1875,707057.4375,234956.0,461396.09375,237443.3125,0.0
1772754128.4673097,700239.4375,400516.1875,704085.25,707117.875,707057.25,234955.015625,461319.5625,237433.03125,0.0
1772754128.4704545,700121.375,400502.25,704014.875,707119.8125,707059.625,234954.75,461244.90625,237424.796875,0.0
1772754128.4705129,700006.875,400490.4375,703945.0625,707121.8125,707061.625,234953.859375,461173.65625,237419.4375,0.0
1772754128.4735525,699896.875,400483.65625,703872.375,707122.5625,707062.0625,234950.46875,461096.84375,237409.515625,0.0
1772754128.489895,699784.5,400472.375,703802.625,707123.125,707062.25,234951.53125,461023.34375,237401.5625,0.0
1772754128.4925585,699665.4375,400455.125,703731.8125,707123.1875,707062.4375,234948.9375,460947.1875,237391.546875,0.0
1772754128.492602,699555.1875,400446.90625,703665.0625,707123.125,707063.125,234948.234375,460871.96875,237383.9375,0.0
1772754128.494985,699454.0625,400444.5625,703601.5,707124.125,707063.75,234951.984375,460801.53125,237380.640625,0.0
1772754128.4974425,699344.875,400434.75,703531.75,707125.0,707064.5,234950.640625,460728.5625,237374.546875,0.0
1772754128.4994605,699233.25,400422.03125,703460.1875,707124.5625,707064.5,234948.859375,460653.46875,237367.40625,0.0
1772754128.51211,699117.375,400404.78125,703388.0625,707125.75,707065.625,234949.03125,460575.875,237358.640625,0.0
1772754128.515086,699009.5625,400396.375,703320.625,707129.75,707069.5,234952.875,460503.34375,237355.15625,0.0
1772754128.5151296,698906.1875,400390.46875,703253.75,707129.8125,707069.8125,234954.484375,460433.4375,237351.9375,0.0
1772754128.517532,698801.9375,400381.28125,703184.9375,707128.5625,707068.75,234954.484375,460363.0625,237343.625,0.0
1772754128.5257597,698696.8125,400370.625,703115.5625,707129.5625,707069.1875,234953.140625,460290.5625,237336.46875,0.0
1772754128.5285537,698585.8125,400355.34375,703043.6875,707128.875,707068.75,234951.453125,460216.09375,237328.78125,0.0
1772754128.5310693,698473.8125,400339.875,702974.8125,707129.9375,707070.4375,234949.296875,460145.8125,237324.390625,0.0
1772754128.5332458,698365.8125,400326.125,702902.125,707130.125,707070.8125,234946.34375,460072.9375,237319.03125,0.0
1772754128.5401456,698260.75,400315.03125,702829.25,707130.0,707070.3125,234945.359375,459997.65625,237312.5,0.0
1772754128.5402176,698153.3125,400303.9375,702760.1875,707131.375,707071.8125,234947.0625,459925.34375,237305.171875,0.0
1772754128.5460553,698046.4375,400293.84375,702687.75,707132.1875,707072.375,234945.359375,459855.4375,237299.625,0.0
1772754128.5506797,697945.4375,400290.09375,702622.5,707134.5625,707074.9375,234949.5625,459788.46875,237297.84375,0.0
1772754128.5507872,697845.375,400283.09375,702557.125,707134.0625,707074.5,234954.671875,459719.4375,237293.640625,0.0
1772754128.5537121,697735.0625,400266.21875,702482.375,707133.875,707074.5,234953.59375,459645.59375,237285.765625,0.0
1772754128.5728846,697627.8125,400254.75,702407.875,707134.6875,707075.8125,234950.1875,459571.8125,237277.015625,0.0
1772754128.5729318,697521.0,400244.03125,702336.1875,707136.4375,707077.25,234951.984375,459502.09375,237272.09375,0.0
1772754128.575101,697417.0,400235.8125,702263.9375,707135.75,707076.25,234953.40625,459430.5625,237265.390625,0.0
1772754128.5752082,697322.5,400235.90625,702201.75,707136.625,707077.625,234957.171875,459364.40625,237263.59375,0.0
1772754128.577304,697216.9375,400224.46875,702130.8125,707137.375,707078.625,234953.140625,459291.53125,237256.09375,0.0
1772754128.581211,697112.25,400212.46875,702062.0625,707136.875,707078.625,234952.515625,459219.84375,237247.953125,0.0
1772754128.5954952,697007.875,400201.375,701994.3125,707138.4375,707080.1875,234954.125,459149.1875,237240.53125,0.0
1772754128.5955431,696895.75,400184.5,701925.125,707139.3125,707080.8125,234955.375,459078.21875,237232.84375,0.0
1772754128.5968907,696789.8125,400170.71875,701853.5625,707139.6875,707081.375,234955.5625,459004.8125,237224.96875,0.0
1772754128.5999677,696686.375,400159.09375,701781.3125,707137.375,707079.0625,234952.78125,458930.34375,237213.625,0.0
1772754128.6021628,696587.75,400151.40625,701715.375,707137.8125,707079.9375,234951.796875,458861.84375,237205.03125,0.0
1772754128.6107368,696488.1875,400141.03125,701650.8125,707139.875,707082.0625,234953.0625,458796.9375,237198.875,0.0
1772754128.6140676,696381.6875,400125.125,701580.6875,707142.25,707084.4375,234952.25,458728.28125,237192.4375,0.0
1772754128.6141417,696271.375,400106.0,701506.6875,707143.25,707085.6875,234949.921875,458654.875,237181.875,0.0
1772754128.6213355,696167.4375,400093.46875,701434.9375,707142.6875,707085.0625,234949.390625,458581.5625,237171.6875,0.0
1772754128.6232567,696069.1875,400086.6875,701367.4375,707144.0625,707087.1875,234952.078125,458510.75,237164.984375,0.0
1772754128.632776,695965.25,400076.40625,701300.9375,707142.0,707085.3125,234954.671875,458440.125,237158.640625,0.0
1772754128.6328475,695858.75,400062.625,701238.25,707142.0,707085.125,234955.015625,458372.15625,237153.453125,0.0
1772754128.6354184,695760.9375,400056.5625,701175.25,707143.625,707086.125,234955.015625,458302.96875,237144.515625,0.0
1772754128.6354687,695655.875,400040.1875,701107.1875,707144.9375,707087.75,234952.078125,458231.15625,237135.296875,0.0
1772754128.6411557,695555.5625,400027.5,701037.5625,707146.625,707089.625,234951.265625,458159.28125,237128.859375,0.0
1772754128.6556287,695458.8125,400019.4375,700975.875,707147.0,707090.125,234956.09375,458088.90625,237123.046875,0.0
1772754128.65571,695352.625,400000.21875,700912.9375,707147.0,707089.9375,234956.1875,458017.5,237115.625,0.0
1772754128.6572375,695250.5,399985.65625,700846.0625,707147.375,707090.25,234951.09375,457942.21875,237101.765625,0.0
1772754128.6598463,695152.5,399976.4375,700781.875,707147.875,707091.0625,234950.015625,457872.1875,237093.546875,0.0
1772754128.6623323,695055.9375,399970.0,700719.0,707148.8125,707091.8125,234949.921875,457804.34375,237084.609375,0.0
1772754128.665692,694956.25,399957.5,700655.4375,707148.25,707091.125,234950.28125,457735.40625,237076.46875,0.0
1772754128.675086,694853.0,399943.0,700588.375,707150.0625,707092.625,234950.1875,457666.21875,237070.921875,0.0
1772754128.6751409,694748.0625,399926.0,700521.9375,707150.875,707093.375,234948.234375,457596.1875,237063.78125,0.0
1772754128.6813073,694654.1875,399918.0625,700460.0625,707150.0625,707093.8125,234950.1875,457528.53125,237057.96875,0.0
1772754128.6813505,694556.5,399909.28125,700398.125,707149.6875,707093.0625,234950.734375,457461.65625,237054.203125,0.0
1772754128.6869595,694464.6875,399905.4375,700336.875,707151.3125,707094.4375,234954.125,457396.46875,237050.1875,0.0
1772754128.6963124,694366.4375,399893.1875,700274.9375,707154.25,707097.5625,234953.328125,457329.78125,237042.671875,0.0
1772754128.6963527,694267.9375,399880.6875,700213.375,707154.25,707097.5625,234954.21875,457261.625,237034.71875,0.0
1772754128.6992624,694172.4375,399869.875,700151.875,707155.25,707098.75,234959.671875,457197.4375,237033.640625,0.0
1772754128.699324,694076.3125,399859.40625,700086.0,707157.0,707100.6875,234962.359375,457130.75,237028.28125,0.0
1772754128.704908,693981.625,399850.71875,700019.3125,707157.3125,707100.5,234960.296875,457064.0625,237022.46875,0.0
1772754128.7107296,693882.6875,399839.125,699951.0625,707156.5,707100.0,234957.078125,456993.96875,237012.8125,0.0
1772754128.726612,693778.75,399823.46875,699885.25,707157.125,707100.75,234960.03125,456925.1875,237006.109375,0.0
1772754128.7266612,693681.3125,399814.53125,699820.125,707157.8125,707101.5625,234960.5625,456856.53125,236996.453125,0.0
1772754128.7290637,693584.4375,399804.15625,699755.875,707157.1875,707101.0625,234959.40625,456789.9375,236987.59375,0.0
1772754128.7291136,693491.625,399795.21875,699697.625,707159.0,707102.8125,234959.5,456724.75,236982.6875,0.0
1772754128.7310605,693398.625,399789.03125,699640.8125,707160.4375,707104.25,234961.375,456660.65625,236978.484375,0.0
1772754128.733568,693302.9375,399780.375,699578.3125,707160.5625,707104.375,234959.140625,456593.6875,236971.328125,0.0
1772754128.7360408,693203.5625,399766.78125,699515.25,707162.3125,707106.25,234957.890625,456528.21875,236965.703125,0.0
1772754128.744809,693106.875,399755.6875,699455.6875,707163.0,707107.1875,234956.625,456459.9375,236957.46875,0.0
1772754128.74891,693009.6875,399745.21875,699400.25,707164.875,707108.8125,234959.84375,456395.1875,236953.796875,0.0
1772754128.7489831,692911.5625,399732.90625,699333.4375,707162.3125,707106.5,234952.515625,456321.875,236940.390625,0.0
1772754128.7598863,692818.1875,399723.6875,699272.1875,707162.9375,707107.1875,234950.375,456255.1875,236932.703125,0.0
1772754128.7626004,692723.875,399714.125,699213.375,707161.8125,707106.75,234950.46875,456188.75,236926.09375,0.0
1772754128.762646,692624.6875,399699.53125,699152.875,707162.375,707107.125,234950.1875,456123.9375,236918.578125,0.0
1772754128.7648616,692525.1875,399684.96875,699089.8125,707162.5625,707107.1875,234948.140625,456057.15625,236908.65625,0.0
1772754128.7740512,692432.3125,399677.0,699032.0,707163.875,707108.75,234947.515625,455992.25,236902.125,0.0
1772754128.774102,692337.875,399667.0,698975.9375,707163.375,707108.125,234949.125,455925.625,236894.53125,0.0
1772754128.7758188,692235.6875,399648.40625,698918.0,707163.375,707108.3125,234951.09375,455857.78125,236886.296875,0.0
1772754128.7798064,692141.625,399638.5625,698861.3125,707164.375,707109.4375,234954.9375,455792.6875,236880.484375,0.0
1772754128.7882838,692051.25,399633.21875,698800.5625,707164.875,707109.875,234954.9375,455726.6875,236872.53125,0.0
1772754128.792621,691947.375,399612.09375,698733.8125,707165.9375,707111.125,234951.53125,455658.125,236862.609375,0.0
1772754128.7926648,691851.6875,399599.6875,698672.125,707167.125,707112.3125,234954.3125,455594.65625,236860.015625,0.0
1772754128.808564,691761.875,399594.75,698611.75,707165.875,707111.0,234956.28125,455532.34375,236859.84375,0.0
1772754128.813883,691675.375,399590.46875,698557.125,707168.1875,707113.8125,234960.65625,455472.4375,236857.15625,0.0
1772754128.8139265,691582.4375,399579.5625,698501.4375,707173.375,707118.375,234966.5625,455412.53125,236857.328125,0.0
1772754128.8161733,691487.25,399566.6875,698443.9375,707174.6875,707119.625,234969.0625,455348.25,236854.390625,0.0
1772754128.8183007,691400.625,399561.40625,698390.3125,707174.25,707119.1875,234971.203125,455287.4375,236852.421875,0.0
1772754128.8213046,691313.375,399555.59375,698334.6875,707177.75,707122.9375,234973.96875,455226.46875,236849.203125,0.0
1772754128.8214211,691224.0625,399544.5,698278.625,707181.6875,707127.0,234977.46875,455165.21875,236847.046875,0.0
1772754128.8272371,691128.6875,399525.75,698218.75,707180.0,707125.4375,234976.84375,455101.03125,236840.796875,0.0
1772754128.8297498,691018.4375,399497.3125,698145.4375,707174.625,707120.0625,234967.0,455023.5,236823.8125,0.0
1772754128.8319755,690913.9375,399475.21875,698072.1875,707171.5,707116.875,234956.28125,454943.6875,236803.59375,0.0
1772754128.8384724,690810.9375,399453.0625,698003.0625,707170.0,707115.4375,234946.4375,454866.78125,236783.578125,0.0
1772754128.8423336,690721.0,399445.625,697945.3125,707168.8125,707113.9375,234948.40625,454800.1875,236775.078125,0.0
1772754128.8517468,690631.3125,399437.0625,697893.1875,707169.5625,707115.5,234955.640625,454742.78125,236775.890625,0.0
1772754128.8518105,690544.5625,399429.625,697839.625,707171.5,707117.875,234959.140625,454682.4375,236773.65625,0.0
1772754128.8579986,690454.375,399422.03125,697786.0625,707173.3125,707119.4375,234960.65625,454621.09375,236767.390625,0.0
1772754128.858071,690362.5625,399413.53125,697730.6875,707174.875,707120.625,234960.296875,454557.53125,236761.84375,0.0
1772754128.869088,690273.5,399407.71875,697674.3125,707175.625,707121.6875,234963.875,454495.84375,236755.234375,0.0
1772754128.8691359,690180.25,399398.25,697617.5625,707175.1875,707121.625,234965.84375,454435.84375,236748.171875,0.0
1772754128.8776133,690084.75,399383.65625,697556.25,707175.0,707121.3125,234963.609375,454372.375,236741.90625,0.0
1772754128.877659,689994.375,399373.9375,697498.625,707177.125,707123.6875,234965.9375,454311.5625,236739.859375,0.0
1772754128.880166,689905.6875,399368.21875,697442.75,707177.25,707123.9375,234968.515625,454250.5,236736.546875,0.0
1772754128.880232,689810.1875,399354.53125,697380.25,707176.0625,707122.4375,234965.484375,454182.46875,236725.375,0.0
1772754128.8937407,689710.125,399336.03125,697315.375,707174.4375,707121.0,234960.125,454112.0,236714.8125,0.0
1772754128.896621,689618.125,399323.5,697252.0625,707174.25,707121.1875,234955.734375,454046.03125,236707.484375,0.0
1772754128.8966725,689521.6875,399307.84375,697190.5625,707175.9375,707122.9375,234953.765625,453983.875,236700.875,0.0
1772754128.9100573,689431.375,399300.4375,697131.25,707177.375,707124.0,234956.90625,453921.125,236692.921875,0.0
1772754128.910099,689343.8125,399293.71875,697068.625,707176.875,707123.1875,234955.734375,453856.03125,236681.734375,0.0
1772754128.9134145,689249.0,399277.375,697003.4375,707177.125,707123.375,234952.078125,453791.84375,236672.890625,0.0
1772754128.9134617,689151.8125,399260.65625,696940.75,707177.125,707123.875,234952.609375,453728.71875,236664.3125,0.0
1772754128.9134705,689059.0,399250.1875,696881.3125,707177.875,707124.5,234955.109375,453667.65625,236658.578125,0.0
1772754128.9178398,688975.5,399245.34375,696824.0625,707179.8125,707126.5,234956.0,453607.5,236653.390625,0.0
1772754128.9178908,688881.125,399230.875,696759.25,707180.625,707127.3125,234954.75,453542.5,236641.78125,0.0
1772754128.9288867,688784.125,399216.3125,696695.125,707180.25,707127.3125,234955.828125,453480.53125,236634.890625,0.0
1772754128.9355254,688691.1875,399204.21875,696634.8125,707180.0625,707127.875,234958.234375,453420.4375,236629.171875,0.0
1772754128.9355865,688605.875,399196.0,696580.4375,707181.0,707128.25,234961.28125,453362.5,236626.125,0.0
1772754128.9541276,688517.4375,399184.5625,696524.3125,707183.5625,707131.0625,234962.4375,453304.03125,236622.90625,0.0
1772754128.9541798,688423.0625,399165.4375,696465.1875,707183.5625,707130.9375,234958.0625,453238.25,236613.515625,0.0
1772754128.9575877,688333.5625,399153.28125,696411.875,707183.1875,707130.5625,234954.75,453176.8125,236608.421875,0.0
1772754128.9576325,688246.25,399146.75,696358.25,707185.1875,707132.4375,234954.03125,453117.53125,236604.484375,0.0
1772754128.9576414,688156.3125,399135.75,696299.1875,707185.0,707132.6875,234953.40625,453055.125,236595.1875,0.0
1772754128.9576476,688070.875,399127.78125,696241.6875,707185.1875,707132.6875,234950.640625,452993.09375,236586.78125,0.0
1772754128.95965,687982.6875,399117.3125,696184.8125,707186.0625,707133.6875,234946.078125,452931.84375,236580.359375,0.0
1772754128.962492,687897.875,399111.59375,696133.875,707187.25,707134.375,234942.59375,452871.21875,236575.53125,0.0
1772754128.9707632,687805.125,399096.9375,696076.8125,707185.8125,707132.875,234944.203125,452808.90625,236566.3125,0.0
1772754128.975491,687713.6875,399081.03125,696019.75,707186.9375,707134.375,234948.859375,452749.0,236560.859375,0.0
1772754128.975565,687630.5,399073.53125,695959.0625,707187.125,707134.75,234948.765625,452685.6875,236551.46875,0.0
1772754128.9783528,687548.375,399067.15625,695900.5,707186.8125,707134.1875,234949.65625,452621.3125,236540.921875,0.0
1772754128.9873207,687462.0,399057.15625,695842.375,707187.25,707134.5625,234951.890625,452560.1875,236533.328125,0.0
1772754128.9903913,687365.1875,399040.25,695779.625,707187.125,707134.6875,234951.171875,452491.875,236518.75,0.0
1772754128.9904408,687275.875,399029.09375,695721.875,707188.75,707136.4375,234951.984375,452427.84375,236509.0,0.0
1772754129.0187476,687194.6875,399024.0625,695666.8125,707189.9375,707137.375,234951.984375,452369.5625,236503.640625,0.0
1772754129.0234675,687106.8125,399012.90625,695607.0,707190.1875,707137.375,234951.171875,452306.71875,236495.953125,0.0
1772754129.0298965,687011.125,398996.8125,695548.875,707189.625,707137.1875,234953.859375,452242.59375,236487.09375,0.0
1772754129.0326207,686930.5,398994.46875,695497.25,707189.375,707136.8125,234960.03125,452186.0,236483.078125,0.0
1772754129.0344667,686843.75,398984.8125,695438.4375,707190.25,707137.875,234960.75,452125.21875,236475.484375,0.0
1772754129.037281,686753.25,398975.53125,695378.5625,707191.6875,707139.3125,234960.828125,452062.625,236468.59375,0.0
1772754129.0398576,686664.3125,398967.125,695321.5625,707192.75,707140.8125,234956.453125,451999.59375,236461.171875,0.0
1772754129.0422947,686578.0,398959.71875,695268.9375,707193.75,707142.0625,234956.09375,451939.40625,236455.71875,0.0
1772754129.0445774,686492.8125,398954.15625,695216.25,707195.1875,707143.625,234957.4375,451881.125,236453.125,0.0
1772754129.0470033,686402.25,398943.0625,695162.1875,707195.25,707143.8125,234957.609375,451822.125,236447.84375,0.0
1772754129.0499012,686306.4375,398928.9375,695102.6875,707194.8125,707143.3125,234955.203125,451758.8125,236437.921875,0.0
1772754129.052069,686218.875,398925.625,695045.0625,707194.75,707143.3125,234951.625,451696.84375,236430.5,0.0
1772754129.0551028,686130.8125,398919.28125,694989.8125,707195.125,707143.875,234949.03125,451637.21875,236424.78125,0.0
1772754129.0551536,686037.75,398904.8125,694933.5625,707195.375,707144.125,234945.984375,451576.25,236416.921875,0.0
1772754129.0570033,685953.0,398897.21875,694881.1875,707195.25,707144.125,234948.859375,451519.21875,236413.15625,0.0
1772754129.0603917,685867.125,398891.5625,694828.0625,707194.5625,707143.25,234949.921875,451461.71875,236407.96875,0.0
1772754129.0604372,685779.8125,398884.6875,694772.8125,707197.0,707145.6875,234946.171875,451403.0625,236403.328125,0.0
1772754129.0682385,685693.8125,398877.53125,694718.375,707198.125,707147.25,234945.90625,451345.65625,236399.65625,0.0
1772754129.072863,685607.0,398869.84375,694663.3125,707197.875,707147.25,234947.328125,451287.71875,236393.3125,0.0
1772754129.0729127,685517.375,398857.59375,694609.625,707196.8125,707145.5625,234945.984375,451228.625,236388.125,0.0
1772754129.083496,685434.6875,398854.28125,694561.625,707197.25,707146.75,234943.3125,451170.34375,236385.359375,0.0
1772754129.0865965,685353.9375,398851.6875,694512.8125,707197.6875,707147.375,234942.765625,451113.125,236381.421875,0.0
1772754129.0866435,685257.6875,398831.84375,694453.625,707195.9375,707145.1875,234940.0,451050.09375,236370.421875,0.0
1772754129.088307,685165.25,398818.53125,694396.6875,707195.375,707144.5625,234937.765625,450991.09375,236364.875,0.0
1772754129.0979059,685083.75,398818.625,694345.0,707196.0625,707145.5,234939.640625,450935.5625,236363.09375,0.0
1772754129.0979557,685000.375,398814.0625,694292.4375,707196.0,707145.6875,234940.8125,450879.21875,236359.6875,0.0
1772754129.0998075,684910.6875,398803.15625,694240.9375,707200.4375,707150.0625,234940.0,450824.96875,236357.1875,0.0
1772754129.103227,684821.125,398791.0,694182.0,707201.4375,707151.0,234934.453125,450764.53125,236346.28125,0.0
1772754129.117607,684737.25,398783.65625,694124.3125,707200.625,707150.5,234932.578125,450704.875,236336.53125,0.0
1772754129.1176512,684643.6875,398765.96875,694065.0625,707199.9375,707149.875,234929.625,450645.53125,236328.765625,0.0
1772754129.120002,684554.0625,398754.78125,694007.5,707201.0625,707150.375,234930.796875,450587.75,236323.03125,0.0
1772754129.122092,684474.4375,398752.8125,693958.375,707203.0625,707152.75,234932.140625,450533.0625,236322.859375,0.0
1772754129.1248405,684392.1875,398746.125,693907.625,707203.3125,707153.0625,234933.125,450475.5625,236319.28125,0.0
1772754129.1307445,684299.125,398730.1875,693844.875,707200.5625,707149.75,234927.3125,450412.0,236308.28125,0.0
1772754129.137748,684207.5625,398714.375,693789.75,707200.0,707149.6875,234925.421875,450356.65625,236304.0,0.0
1772754129.1378176,684119.8125,398704.71875,693737.125,707201.8125,707151.8125,234924.796875,450302.46875,236300.953125,0.0
1772754129.1398957,684038.5,398700.25,693685.4375,707203.3125,707153.875,234924.796875,450249.375,236299.25,0.0
1772754129.1486778,683951.3125,398690.59375,693627.3125,707201.8125,707152.375,234921.765625,450192.21875,236292.109375,0.0
1772754129.1528935,683862.625,398682.1875,693572.8125,707203.3125,707153.25,234925.609375,450136.25,236285.671875,0.0
1772754129.1529424,683771.625,398671.46875,693517.375,707205.9375,707156.0,234928.296875,450081.375,236278.15625,0.0
1772754129.166302,683681.0,398658.84375,693460.6875,707205.75,707155.75,234926.140625,450022.96875,236267.78125,0.0
1772754129.1663513,683598.875,398656.4375,693407.8125,707204.5625,707154.9375,234925.875,449967.09375,236263.765625,0.0
1772754129.1685772,683506.8125,398643.65625,693348.125,707206.625,707157.0,234925.421875,449909.875,236258.21875,0.0
1772754129.1720705,683417.0625,398630.6875,693291.125,707208.0,707158.375,234927.9375,449855.53125,236251.15625,0.0
1772754129.185805,683331.125,398623.96875,693235.75,707210.5,707160.875,234929.453125,449800.0,236243.5625,0.0
1772754129.1892922,683242.25,398612.90625,693181.125,707208.4375,707158.4375,234928.375,449741.25,236237.46875,0.0
1772754129.1893632,683148.8125,398597.5,693125.125,707208.25,707158.5625,234928.734375,449683.78125,236232.5625,0.0
1772754129.1910596,683054.5625,398584.46875,693067.625,707209.3125,707159.8125,234927.21875,449626.46875,236224.515625,0.0
1772754129.193257,682970.0,398581.78125,693013.75,707209.75,707160.0625,234930.34375,449571.84375,236220.3125,0.0
1772754129.2023273,682884.0625,398577.5,692957.875,707209.3125,707159.8125,234931.78125,449515.875,236214.671875,0.0
1772754129.2091072,682798.625,398569.875,692907.9375,707212.0625,707163.0,234937.140625,449463.5625,236210.46875,0.0
1772754129.2091587,682704.5,398551.65625,692853.3125,707213.9375,707164.875,234940.890625,449404.28125,236200.8125,0.0
1772754129.211142,682607.75,398530.46875,692794.4375,707214.9375,707165.6875,234940.890625,449344.84375,236192.421875,0.0
1772754129.2133467,682517.8125,398519.90625,692736.8125,707214.5,707165.25,234938.921875,449285.5625,236185.078125,0.0
1772754129.2219877,682433.8125,398517.125,692684.375,707214.875,707165.5,234939.28125,449228.96875,236180.078125,0.0
1772754129.2249577,682344.8125,398508.90625,692630.1875,707213.625,707164.4375,234940.453125,449175.65625,236175.515625,0.0
1772754129.2288537,682248.75,398494.96875,692572.3125,707213.6875,707164.8125,234936.6875,449116.9375,236164.15625,0.0
1772754129.2289197,682149.6875,398477.1875,692512.0,707213.25,707164.8125,234932.765625,449057.65625,236154.15625,0.0
1772754129.2323065,682062.875,398472.0,692460.625,707214.6875,707165.75,234936.421875,449005.8125,236151.828125,0.0
1772754129.243634,681981.1875,398469.5,692413.0625,707216.375,707167.5625,234933.921875,448951.34375,236149.40625,0.0
1772754129.2464814,681889.6875,398453.84375,692362.5625,707216.3125,707167.5,234929.90625,448894.75,236142.078125,0.0
1772754129.2465537,681797.1875,398437.125,692311.25,707218.25,707169.375,234927.84375,448838.25,236134.484375,0.0
1772754129.248488,681706.6875,398425.0625,692259.75,707218.875,707170.1875,234928.296875,448782.1875,236127.234375,0.0
1772754129.2573128,681622.125,398420.5,692211.0,707220.5,707172.0625,234930.796875,448730.96875,236122.953125,0.0
1772754129.2607188,681536.5625,398414.84375,692158.4375,707221.3125,707173.125,234933.203125,448675.25,236115.609375,0.0
1772754129.265498,681444.8125,398400.0,692105.625,707221.3125,707172.5625,234931.515625,448616.53125,236106.578125,0.0
1772754129.2655709,681348.625,398383.5625,692049.75,707223.625,707174.25,234932.40625,448559.9375,236096.65625,0.0
1772754129.2765045,681257.75,398375.25,691992.3125,707222.8125,707173.1875,234934.375,448504.5,236087.625,0.0
1772754129.2765615,681174.0,398373.625,691940.125,707222.125,707171.75,234934.640625,448451.21875,236082.0,0.0
1772754129.2788043,681085.375,398365.15625,691889.0,707223.375,707171.75,234937.671875,448401.3125,236082.09375,0.0
1772754129.2816467,680995.0,398353.15625,691834.375,707223.5625,707170.5,234938.21875,448349.5625,236079.578125,0.0
1772754129.2816932,680870.3125,398337.96875,691776.9375,707221.1875,707167.0,234938.75,448294.5625,236073.859375,0.0
1772754129.283235,680492.75,398315.15625,691719.0,707221.0,707169.6875,234936.0625,448234.65625,236063.84375,0.0
1772754129.2950473,680391.875,398272.0,691660.25,707220.0625,707169.875,234926.765625,448172.0,236049.546875,0.0
1772754129.2976525,680527.125,398218.4375,691594.75,707216.125,707165.9375,234913.890625,448107.09375,236033.453125,0.0
1772754129.2977123,680672.625,398179.71875,691536.5625,707215.5,707166.75,234905.046875,448047.25,236023.53125,0.0
1772754129.2998927,680826.1875,398151.65625,691485.5,707216.3125,707167.125,234899.234375,447989.25,236014.578125,0.0
1772754129.3086905,680978.0,398124.71875,691437.0625,707215.1875,707165.875,234897.0,447933.28125,236006.984375,0.0
1772754129.3114777,681161.6875,398090.9375,691384.9375,707213.0625,707163.4375,234894.3125,447875.5,235998.3125,0.0
1772754129.3115463,681594.0625,398068.3125,691337.0625,707216.0,707167.3125,234895.921875,447823.84375,235995.625,0.0
1772754129.3148627,681702.375,398076.53125,691296.375,707219.875,707171.75,234904.15625,447777.15625,235999.390625,0.0
1772754129.3235433,681603.0,398084.5,691250.625,707222.75,707174.8125,234912.46875,447729.6875,236000.09375,0.0
1772754129.3306131,681490.9375,398078.59375,691199.0,707223.25,707175.1875,234916.390625,447678.28125,235996.703125,0.0
1772754129.330686,681383.125,398078.59375,691150.6875,707225.125,707176.625,234921.578125,447630.53125,235998.140625,0.0
1772754129.33191,681278.25,398078.25,691099.25,707226.3125,707177.0625,234921.046875,447579.9375,235997.421875,0.0
1772754129.3407173,681172.1875,398071.34375,691048.5625,707227.375,707176.5,234921.671875,447528.875,235995.359375,0.0
1772754129.3453283,681064.0625,398060.1875,690994.9375,707227.0,707174.6875,234921.671875,447476.9375,235991.15625,0.0
1772754129.3453505,680945.5625,398050.53125,690941.875,707227.9375,707173.75,234923.640625,447427.9375,235988.203125,0.0
1772754129.3512564,680589.625,398032.65625,690886.625,707228.75,707176.6875,234919.4375,447372.0625,235978.828125,0.0
1772754129.351317,680381.5625,398001.875,690827.625,707227.625,707177.375,234911.125,447311.09375,235966.65625,0.0
1772754129.3570976,680504.375,397962.8125,690770.875,707227.375,707176.875,234905.046875,447250.65625,235956.734375,0.0
1772754129.363868,680635.9375,397925.8125,690709.875,707226.0625,707176.125,234897.0,447189.9375,235944.9375,0.0
1772754129.3639083,680772.5625,397896.28125,690653.1875,707224.9375,707175.625,234892.796875,447131.8125,235933.671875,0.0
1772754129.3695314,680911.0,397870.625,690601.25,707224.625,707175.9375,234890.5625,447078.53125,235926.78125,0.0
1772754129.3788815,681047.5,397843.46875,690545.4375,707222.5625,707173.75,234888.59375,447019.96875,235915.796875,0.0
1772754129.3789203,681317.5,397826.125,690498.625,707223.8125,707174.8125,234894.578125,446972.3125,235914.265625,0.0
1772754129.3852043,681719.125,397824.0625,690454.4375,707227.0,707179.1875,234902.8125,446928.875,235916.5,0.0
1772754129.385259,681688.5625,397835.5,690410.3125,707228.5625,707180.6875,234908.265625,446883.46875,235916.953125,0.0
1772754129.3940415,681582.25,397846.6875,690366.0,707232.1875,707184.5625,234912.015625,446837.5,235919.1875,0.0
1772754129.3941035,681470.0,397849.34375,690312.9375,707232.75,707184.9375,234912.203125,446785.5625,235913.640625,0.0
1772754129.400138,681361.125,397853.28125,690262.6875,707232.5625,707184.375,234914.15625,446737.375,235911.046875,0.0
1772754129.4002404,681253.3125,397853.84375,690214.6875,707232.375,707183.8125,234916.125,446688.0,235907.03125,0.0
1772754129.4107776,681150.125,397858.9375,690166.8125,707234.1875,707183.8125,234919.53125,446637.40625,235902.5625,0.0
1772754129.4141638,681042.5625,397858.3125,690116.9375,707234.8125,707182.6875,234921.859375,446589.125,235898.4375,0.0
1772754129.4142165,680902.8125,397857.75,690063.8125,707235.25,707181.875,234922.296875,446539.25,235893.171875,0.0
1772754129.4156668,680497.8125,397835.0625,690000.0,707235.5,707185.0625,234914.4375,446480.0625,235877.96875,0.0
1772754129.4297829,680395.6875,397798.84375,689938.125,707233.875,707184.75,234904.421875,446415.6875,235856.609375,0.0
1772754129.4332025,680530.25,397764.34375,689883.0625,707233.8125,707184.375,234896.109375,446356.59375,235841.578125,0.0
1772754129.4332483,680666.625,397736.15625,689833.5,707233.75,707184.375,234891.453125,446300.96875,235833.09375,0.0
1772754129.433256,680796.6875,397703.4375,689776.5,707231.875,707182.75,234881.34375,446237.21875,235816.546875,0.0
1772754129.435754,680934.3125,397680.375,689724.625,707231.0625,707182.3125,234877.328125,446178.75,235805.8125,0.0
1772754129.4398527,681077.0,397660.0,689679.625,707231.5625,707182.75,234877.421875,446128.59375,235802.78125,0.0
1772754129.455354,681407.0625,397641.5,689632.8125,707233.875,707185.4375,234878.671875,446078.4375,235798.75,0.0
1772754129.455405,681718.25,397645.25,689588.5625,707237.0625,707189.5625,234885.640625,446034.625,235799.828125,0.0
1772754129.4575853,681642.75,397659.0,689545.625,707240.625,707192.9375,234890.109375,445992.5,235801.34375,0.0
1772754129.457664,681536.125,397670.0,689504.125,707243.5625,707196.1875,234896.640625,445948.78125,235802.6875,0.0
1772754129.463958,681430.875,397680.375,689461.3125,707245.875,707197.9375,234898.703125,445902.84375,235802.515625,0.0
1772754129.4640536,681319.1875,397682.96875,689414.5625,707248.0,707199.1875,234900.125,445852.875,235798.484375,0.0
1772754129.4720025,681210.3125,397683.78125,689371.9375,707248.375,707199.125,234906.75,445805.65625,235797.59375,0.0
1772754129.4871783,681093.6875,397676.96875,689320.0625,707246.3125,707195.25,234907.640625,445751.65625,235790.078125,0.0
1772754129.487228,680990.125,397684.125,689273.375,707244.875,707191.875,234910.9375,445703.5625,235787.3125,0.0
1772754129.487238,680745.8125,397683.59375,689227.0,707246.25,707193.0625,234913.1875,445653.75,235783.46875,0.0
1772754129.4903908,680387.25,397662.6875,689172.0,707247.0625,707197.875,234907.8125,445596.71875,235771.484375,0.0
1772754129.490442,680458.9375,397633.34375,689119.9375,707246.3125,707197.0,234905.3125,445544.40625,235764.328125,0.0
1772754129.4920092,680597.125,397605.625,689067.9375,707246.625,707197.0625,234901.734375,445488.78125,235754.40625,0.0
1772754129.494995,680732.625,397579.625,689019.4375,707246.4375,707197.5,234897.53125,445436.84375,235747.25,0.0
1772754129.5032988,680860.375,397548.0625,688965.75,707247.5,707199.1875,234892.890625,445385.1875,235739.390625,0.0
1772754129.5063372,680982.875,397517.84375,688908.125,707245.8125,707197.9375,234890.015625,445331.625,235728.296875,0.0
1772754129.5063977,681117.5,397496.125,688854.3125,707245.4375,707196.8125,234887.078125,445278.25,235718.734375,0.0
1772754129.5098183,681462.25,397486.375,688805.875,707246.3125,707197.625,234886.796875,445230.3125,235716.046875,0.0
1772754129.5161562,681757.9375,397495.5,688759.625,707251.3125,707204.0625,234891.71875,445187.6875,235719.09375,0.0
1772754129.52499,681664.375,397504.4375,688714.3125,707253.3125,707206.4375,234901.5625,445148.96875,235722.140625,0.0
1772754129.5279448,681548.375,397514.25,688667.9375,707254.4375,707207.375,234906.921875,445105.40625,235721.953125,0.0
1772754129.5279944,681430.6875,397519.8125,688618.5,707255.4375,707207.875,234907.90625,445056.59375,235719.71875,0.0
1772754129.5298584,681312.75,397523.75,688566.5625,707256.4375,707208.125,234907.09375,445008.40625,235715.15625,0.0
1772754129.5435767,681201.5625,397531.0625,688521.625,707257.3125,707208.0625,234909.0625,444963.0,235713.375,0.0
1772754129.546804,681083.4375,397528.5625,688473.8125,707257.3125,707206.1875,234910.140625,444917.40625,235711.3125,0.0
1772754129.5468583,680945.5,397528.5625,688426.0625,707257.75,707205.5,234913.359375,444874.75,235711.3125,0.0
1772754129.5481672,680562.0,397521.15625,688374.6875,707258.9375,707209.25,234907.375,444824.15625,235702.640625,0.0
1772754129.5523505,680408.25,397488.96875,688316.75,707258.125,707209.3125,234898.875,444764.34375,235689.40625,0.0
1772754129.5637572,680531.375,397454.8125,688259.6875,707256.25,707207.0,234892.4375,444705.9375,235679.75,0.0
1772754129.5666175,680657.9375,397423.0625,688208.5625,707256.0,707207.25,234889.84375,444653.5625,235670.375,0.0
1772754129.5666668,680784.375,397396.96875,688156.9375,707255.4375,707207.375,234886.359375,444598.65625,235658.125,0.0
1772754129.5682585,680908.5625,397371.9375,688104.375,707254.1875,707206.1875,234882.875,444542.0625,235644.625,0.0
1772754129.5723567,681038.1875,397353.78125,688057.1875,707255.1875,707207.25,234884.390625,444489.3125,235636.65625,0.0
1772754129.57571,681180.5,397334.28125,688008.0,707254.0,707206.375,234883.859375,444438.625,235629.6875,0.0
1772754129.5901244,681557.5625,397312.8125,687953.75,707254.0,707206.875,234880.71875,444386.75,235622.796875,0.0
1772754129.59017,681758.25,397324.53125,687913.0625,707257.875,707211.75,234888.765625,444348.0625,235627.453125,0.0
1772754129.592154,681650.8125,397341.0,687871.9375,707261.0,707215.125,234894.40625,444310.15625,235631.921875,0.0
1772754129.5950143,681530.9375,397347.875,687826.75,707262.8125,707216.75,234897.53125,444266.34375,235631.03125,0.0
1772754129.597254,681416.0,397357.53125,687781.4375,707262.6875,707215.75,234900.84375,444220.1875,235628.703125,0.0
1772754129.6067476,681299.875,397364.59375,687737.4375,707264.6875,707217.0,234906.921875,444175.75,235627.90625,0.0
1772754129.606796,681180.4375,397369.59375,687695.375,707266.625,707217.75,234912.46875,444133.46875,235627.1875,0.0
1772754129.6085932,681061.4375,397371.21875,687648.5,707266.375,707215.375,234913.984375,444090.125,235623.875,0.0
1772754129.612352,680885.6875,397375.3125,687603.625,707266.25,707214.25,234913.625,444045.9375,235621.734375,0.0
1772754129.6217947,680469.125,397361.5625,687555.8125,707268.875,707220.3125,234908.265625,443994.28125,235613.421875,0.0
1772754129.6218936,680431.9375,397328.125,687503.8125,707268.875,707221.0,234905.3125,443941.6875,235604.65625,0.0
1772754129.623238,680560.0625,397298.15625,687451.6875,707268.625,707220.25,234903.53125,443891.4375,235599.5625,0.0
1772754129.6296985,680686.75,397271.25,687396.0,707269.5625,707221.5625,234898.609375,443839.15625,235591.328125,0.0
1772754129.6564903,680812.625,397249.0,687342.625,707268.75,707221.0,234894.765625,443785.6875,235584.09375,0.0
1772754129.6565597,680924.3125,397216.34375,687285.875,707265.1875,707218.0,234888.328125,443726.0625,235571.125,0.0
1772754129.658896,681034.6875,397185.59375,687225.5,707261.625,707214.5625,234877.234375,443663.8125,235552.078125,0.0
1772754129.658944,681142.6875,397153.6875,687161.0625,707257.4375,707209.6875,234862.671875,443599.09375,235530.265625,0.0
1772754129.6626415,681424.375,397134.28125,687106.5,707257.125,707209.0625,234860.15625,443545.34375,235520.078125,0.0
1772754129.6673605,681766.9375,397144.5625,687064.5,707262.3125,707215.875,234871.6875,443510.125,235528.5625,0.0
1772754129.669837,681697.75,397165.125,687027.3125,707268.75,707222.5625,234888.328125,443481.4375,235543.953125,0.0
1772754129.672038,681573.375,397176.125,686982.875,707272.4375,707226.5625,234896.453125,443443.25,235549.84375,0.0
1772754129.6748452,681447.75,397183.90625,686936.75,707272.625,707226.3125,234901.46875,443399.25,235548.78125,0.0
1772754129.6769993,681324.9375,397192.21875,686892.5,707273.6875,707226.5,234908.359375,443355.09375,235549.671875,0.0
1772754129.6796236,681195.3125,397188.375,686843.3125,707274.875,707226.125,234911.578125,443308.34375,235546.09375,0.0
1772754129.6845424,681070.9375,397192.65625,686796.4375,707273.0,707222.3125,234912.734375,443264.09375,235541.890625,0.0
1772754129.6869676,680870.75,397200.0,686748.5,707273.6875,707222.3125,234912.203125,443218.3125,235538.484375,0.0
1772754129.69038,680448.3125,397177.65625,686691.3125,707275.5,707227.4375,234903.96875,443164.75,235526.25,0.0
1772754129.6904273,680440.6875,397140.71875,686630.75,707271.25,707223.5625,234890.109375,443104.75,235508.1875,0.0
1772754129.692422,680561.125,397110.0625,686576.125,707269.0625,707221.1875,234883.671875,443048.0625,235495.671875,0.0
1772754129.6960697,680679.5625,397078.9375,686523.5,707268.9375,707221.8125,234877.59375,442992.1875,235483.0625,0.0
1772754129.7103512,680799.8125,397051.125,686472.8125,707270.375,707223.5625,234874.015625,442938.09375,235473.5,0.0
1772754129.7103996,680916.0,397024.3125,686420.0625,707269.25,707223.0,234869.015625,442884.5625,235463.21875,0.0
1772754129.7145026,681037.5625,397007.5,686372.375,707268.875,707222.75,234870.265625,442838.40625,235459.8125,0.0
1772754129.7146175,681164.5,396995.25,686326.625,707269.375,707223.1875,234872.953125,442791.75,235454.984375,0.0
1772754129.7146373,681499.4375,396986.84375,686281.125,707271.4375,707225.125,234876.796875,442746.25,235449.984375,0.0
1772754129.7196596,681765.25,396996.15625,686242.1875,707277.5625,707231.875,234887.609375,442711.625,235452.484375,0.0
1772754129.7223277,681652.75,397005.53125,686202.0625,707279.5625,707234.1875,234894.5,442673.28125,235455.515625,0.0
1772754129.728263,681518.25,397013.3125,686163.0625,707279.5625,707234.1875,234899.5,442631.4375,235457.3125,0.0
1772754129.735227,681384.625,397023.15625,686122.875,707282.375,707236.4375,234902.8125,442586.28125,235454.984375,0.0
1772754129.7352965,681251.8125,397031.1875,686081.375,707285.3125,707238.125,234901.5625,442540.5,235451.5,0.0
1772754129.7373176,681122.875,397037.71875,686037.8125,707284.3125,707235.3125,234902.09375,442497.59375,235449.796875,0.0
1772754129.7510955,680948.9375,397038.15625,685991.6875,707281.375,707230.25,234904.5,442452.28125,235445.953125,0.0
1772754129.7584312,680517.875,397023.875,685940.375,707283.25,707235.0,234898.78125,442402.8125,235437.015625,0.0
1772754129.7584865,680398.875,396988.1875,685884.5625,707284.25,707237.5625,234888.234375,442351.875,235426.28125,0.0
1772754129.758498,680512.8125,396959.75,685833.8125,707281.3125,707233.625,234883.046875,442299.75,235418.6875,0.0
1772754129.7617078,680622.25,396931.59375,685779.1875,707278.875,707231.6875,234876.875,442245.1875,235407.6875,0.0
1772754129.7617576,680727.6875,396904.5,685725.1875,707281.3125,707234.5,234873.578125,442194.9375,235399.546875,0.0
1772754129.7724483,680833.5625,396878.40625,685671.8125,707281.5,707234.625,234872.328125,442144.875,235390.796875,0.0
1772754129.7763572,680936.1875,396850.15625,685618.875,707280.8125,707234.5,234868.65625,442095.53125,235383.546875,0.0
1772754129.776403,681042.375,396827.875,685568.375,707280.75,707234.875,234866.234375,442049.03125,235378.09375,0.0
1772754129.7901616,681159.1875,396815.09375,685524.875,707282.375,707235.875,234865.703125,442006.46875,235376.484375,0.0
1772754129.7902126,681452.0,396799.1875,685476.0,707281.5625,707235.125,234864.90625,441959.625,235370.859375,0.0
1772754129.795362,681746.1875,396801.875,685428.625,707283.375,707238.5625,234868.390625,441915.90625,235368.171875,0.0
1772754129.795414,681639.875,396815.46875,685387.375,707286.0,707241.0625,234877.328125,441876.03125,235370.140625,0.0
1772754129.7970831,681506.125,396834.78125,685349.5,707289.625,707244.625,234888.953125,441839.90625,235375.953125,0.0
1772754129.7998862,681366.0625,396843.875,685305.5,707291.5,707245.6875,234893.953125,441799.875,235379.609375,0.0
1772754129.8086677,681222.1875,396848.09375,685258.75,707292.5625,707244.875,234896.8125,441759.28125,235381.5,0.0
1772754129.8128831,681077.4375,396848.96875,685209.6875,707293.8125,707244.0,234900.75,441716.625,235380.78125,0.0
1772754129.8129337,680795.25,396853.375,685163.6875,707294.875,707245.0625,234905.484375,441675.21875,235378.625,0.0
1772754129.8188643,680416.125,396837.28125,685110.625,707297.125,707250.625,234901.5625,441623.8125,235365.125,0.0
1772754129.8189104,680461.6875,396808.75,685056.0625,707295.4375,707248.1875,234894.84375,441571.78125,235353.328125,0.0
1772754129.832152,680565.5,396781.46875,685004.375,707295.0625,707247.875,234892.078125,441522.625,235346.0,0.0
1772754129.835395,680669.5,396758.15625,684952.0625,707295.625,707248.6875,234885.90625,441472.53125,235338.21875,0.0
1772754129.83552,680777.5,396741.78125,684905.0625,707292.8125,707247.125,234886.796875,441427.125,235335.1875,0.0
1772754129.837571,680877.0,396718.375,684851.0625,707292.4375,707247.375,234883.59375,441377.5,235327.765625,0.0
1772754129.8376143,680979.625,396699.75,684798.75,707295.6875,707249.8125,234881.0,441330.21875,235322.21875,0.0
1772754129.8482647,681081.75,396681.25,684747.625,707295.9375,707250.1875,234880.90625,441284.0625,235318.1875,0.0
1772754129.851112,681175.875,396658.0,684694.9375,707295.0,707249.125,234878.765625,441235.4375,235313.0,0.0
1772754129.8538451,681371.125,396641.46875,684647.3125,707295.3125,707249.3125,234879.296875,441189.3125,235310.5,0.0
1772754129.8538904,681768.3125,396656.65625,684614.625,707301.125,707256.1875,234886.890625,441154.875,235318.640625,0.0
1772754129.8622503,681733.5,396679.65625,684578.875,707304.1875,707259.5625,234893.515625,441121.8125,235325.4375,0.0
1772754129.864844,681586.1875,396693.40625,684539.125,707305.625,707260.75,234898.15625,441086.03125,235330.4375,0.0
1772754129.879171,681438.0,396701.1875,684493.0625,707306.5,707261.8125,234898.421875,441045.28125,235329.375,0.0
1772754129.8792188,681300.5,396717.28125,684450.5625,707306.6875,707260.625,234901.015625,441007.90625,235334.015625,0.0
1772754129.880758,681155.25,396724.71875,684402.25,707307.375,707259.3125,234898.515625,440965.53125,235330.359375,0.0
1772754129.8836963,680947.8125,396726.84375,684354.9375,707307.9375,707258.3125,234897.4375,440923.9375,235325.96875,0.0
1772754129.8861961,680504.8125,396713.71875,684302.6875,707310.0625,707263.25,234891.625,440875.03125,235314.96875,0.0
1772754129.8906372,680440.6875,396683.125,684248.875,707308.375,707262.3125,234884.296875,440824.15625,235301.5625,0.0
1772754129.8907647,680534.125,396645.3125,684192.1875,707301.3125,707254.375,234874.28125,440771.40625,235289.3125,0.0
1772754129.8985977,680627.75,396613.5,684142.5,707300.0,707253.5625,234869.375,440723.5,235281.71875,0.0
1772754129.901481,680727.0625,396593.625,684094.6875,707301.6875,707256.0,234866.15625,440675.3125,235272.78125,0.0
1772754129.9015746,680824.625,396574.25,684045.25,707301.25,707255.625,234862.578125,440626.5,235262.9375,0.0
1772754129.9120505,680930.625,396565.03125,684002.75,707303.0,707257.3125,234864.90625,440583.75,235259.984375,0.0
1772754129.9151673,681028.1875,396546.59375,683953.9375,707302.3125,707257.0,234861.859375,440541.1875,235253.109375,0.0
1772754129.9152427,681116.1875,396518.28125,683900.9375,707302.125,707257.0,234855.515625,440494.0,235242.640625,0.0
1772754129.9169152,681220.25,396505.5625,683856.8125,707302.0625,707256.25,234854.96875,440448.46875,235238.4375,0.0
1772754129.9260793,681524.75,396497.875,683813.625,707303.3125,707257.3125,234857.75,440404.5625,235236.125,0.0
1772754129.9287567,681777.5,396505.03125,683773.0625,707306.125,707261.625,234865.890625,440366.59375,235241.296875,0.0
1772754129.9311817,681649.9375,396520.9375,683734.25,707309.0,707264.6875,234875.265625,440331.875,235248.546875,0.0
1772754129.940003,681504.1875,396540.15625,683693.9375,707310.0625,707264.8125,234881.171875,440294.4375,235251.671875,0.0
1772754129.943884,681353.4375,396549.125,683650.375,707311.25,707265.4375,234885.375,440256.34375,235256.40625,0.0
1772754129.9439843,681200.3125,396556.625,683608.0,707313.625,707266.4375,234891.09375,440218.96875,235260.171875,0.0
1772754129.9545484,681041.5,396569.5,683570.3125,707314.75,707265.1875,234894.765625,440182.59375,235261.6875,0.0
1772754129.9575996,680639.625,396567.96875,683526.75,707314.75,707267.0625,234893.0625,440138.40625,235256.40625,0.0
1772754129.957644,680390.0,396534.1875,683469.5,707314.625,707270.0,234882.78125,440084.21875,235240.5,0.0
1772754129.959597,680465.875,396501.5625,683414.125,707311.3125,707265.625,234876.25,440032.1875,235227.359375,0.0
1772754129.974155,680563.375,396481.625,683366.25,707311.25,707264.5625,234874.015625,439985.96875,235218.328125,0.0
1772754129.974203,680654.9375,396458.46875,683315.8125,707311.0,707264.9375,234868.921875,439936.25,235205.8125,0.0
1772754129.9760203,680737.4375,396426.1875,683259.875,707309.25,707263.5625,234860.609375,439886.46875,235193.828125,0.0
1772754129.9782403,680827.9375,396406.875,683208.4375,707308.125,707262.9375,234857.75,439841.59375,235184.703125,0.0
1772754129.9845743,680921.8125,396392.90625,683160.4375,707308.375,707263.5,234858.640625,439797.6875,235179.875,0.0
1772754129.9873323,681012.0,396373.6875,683111.25,707309.75,707264.9375,234856.5,439752.96875,235175.859375,0.0
1772754129.9900036,681094.25,396350.71875,683059.3125,707309.1875,707264.1875,234852.109375,439707.5625,235168.34375,0.0
1772754129.9943004,681178.1875,396333.1875,683012.5,707310.5,707265.4375,234849.796875,439667.25,235163.515625,0.0
1772754129.994373,681324.125,396323.71875,682971.8125,707311.125,707265.375,234848.71875,439627.0,235160.5625,0.0
1772754130.0020282,681710.625,396323.53125,682935.125,707315.5625,707270.8125,234853.1875,439592.125,235161.734375,0.0
1772754130.0063484,681729.0625,396337.9375,682899.8125,707319.125,707275.0625,234861.328125,439561.65625,235166.5625,0.0
1772754130.006395,681566.9375,396352.6875,682858.875,707320.625,707276.0,234866.15625,439526.78125,235167.90625,0.0
1772754130.01745,681410.375,396367.34375,682818.0,707321.0625,707275.9375,234871.25,439492.53125,235168.4375,0.0
1772754130.020074,681250.6875,396373.6875,682774.9375,707320.25,707273.6875,234873.75,439454.90625,235167.90625,0.0
1772754130.0201173,681048.5625,396379.40625,682729.9375,707321.0,707272.5,234876.609375,439416.1875,235166.5625,0.0
1772754130.0259924,680595.1875,396373.875,682680.5,707323.9375,707277.25,234872.046875,439373.53125,235159.859375,0.0
1772754130.030202,680456.875,396345.4375,682624.5625,707319.9375,707274.375,234862.125,439322.3125,235145.1875,0.0
1772754130.030276,680535.625,396312.8125,682567.75,707318.6875,707272.375,234852.828125,439272.875,235131.59375,0.0
1772754130.0323305,680615.1875,396282.15625,682510.8125,707317.3125,707271.25,234846.296875,439224.9375,235119.265625,0.0
1772754130.0461192,680707.3125,396265.25,682463.0,707316.3125,707270.5625,234845.953125,439182.03125,235112.015625,0.0
1772754130.0491238,680789.125,396241.5625,682414.0625,707314.9375,707269.375,234843.53125,439136.96875,235102.71875,0.0
1772754130.049172,680869.3125,396216.6875,682363.3125,707312.9375,707268.125,234838.25,439089.21875,235091.640625,0.0
1772754130.050774,680957.3125,396201.125,682314.375,707313.375,707268.625,234835.484375,439044.59375,235083.59375,0.0
1772754130.0548139,681042.3125,396186.84375,682269.625,707314.1875,707269.6875,234835.578125,439002.78125,235078.40625,0.0
1772754130.0636332,681120.875,396166.375,682225.0,707313.1875,707268.6875,234835.84375,438959.59375,235071.875,0.0
1772754130.0676992,681195.1875,396146.25,682181.875,707314.125,707269.0625,234838.25,438919.53125,235069.46875,0.0
1772754130.067751,681307.875,396135.78125,682143.4375,707315.1875,707269.9375,234840.765625,438881.34375,235068.390625,0.0
1772754130.081767,681673.9375,396131.59375,682103.5,707316.625,707272.4375,234842.90625,438842.09375,235067.046875,0.0
1772754130.0818732,681766.3125,396151.6875,682068.9375,707320.5625,707277.25,234854.4375,438809.28125,235073.84375,0.0
1772754130.0888824,681599.375,396162.6875,682028.125,707323.75,707280.5625,234859.453125,438771.75,235073.84375,0.0
1772754130.0889292,681430.75,396170.90625,681983.6875,707323.0625,707279.0625,234861.5,438735.96875,235071.15625,0.0
1772754130.0953257,681269.375,396183.53125,681941.0,707321.8125,707276.4375,234865.078125,438700.03125,235072.6875,0.0
1772754130.0954287,681108.125,396195.78125,681902.25,707325.25,707276.9375,234871.0625,438667.03125,235078.3125,0.0
1772754130.0977776,680755.375,396196.125,681857.6875,707325.625,707278.0625,234871.78125,438630.21875,235077.6875,0.0
1772754130.0978243,680396.875,396172.96875,681803.3125,707326.375,707282.4375,234860.609375,438580.5,235064.546875,0.0
1772754130.1107705,680439.0,396141.3125,681746.9375,707323.5625,707279.3125,234850.0625,438528.1875,235051.671875,0.0
1772754130.1159103,680526.1875,396123.96875,681698.5625,707322.125,707276.5625,234848.0,438484.375,235046.21875,0.0
1772754130.1159494,680603.5625,396098.6875,681647.5,707322.3125,707276.625,234844.0625,438438.96875,235037.640625,0.0
1772754130.1159568,680688.1875,396082.59375,681599.375,707323.0625,707278.0,234841.65625,438395.5,235029.140625,0.0
1772754130.1253333,680767.625,396062.28125,681553.5625,707322.125,707277.625,234838.703125,438350.4375,235021.0,0.0
1772754130.1253831,680847.375,396044.5,681509.8125,707322.875,707278.6875,234840.671875,438310.5625,235017.609375,0.0
1772754130.1390796,680923.8125,396025.8125,681462.9375,707323.25,707278.8125,234840.21875,438268.5625,235011.890625,0.0
1772754130.1391287,680997.4375,396003.0,681413.375,707323.9375,707279.5,234834.234375,438221.0,235000.984375,0.0
1772754130.141636,681079.0625,395989.875,681370.0,707323.5625,707279.4375,234830.921875,438177.71875,234995.078125,0.0
1772754130.1416872,681150.125,395971.71875,681323.3125,707322.3125,707278.4375,234829.859375,438133.0,234990.875,0.0
1772754130.1432395,681228.75,395960.28125,681277.4375,707322.125,707278.0,234830.03125,438091.0,234989.09375,0.0
1772754130.157638,681502.125,395967.875,681251.3125,707324.75,707280.5625,234842.09375,438067.21875,235005.71875,0.0
1772754130.1577604,681797.1875,396033.15625,681278.625,707332.3125,707289.625,234868.46875,438089.375,235076.53125,0.0
1772754130.1603897,681677.625,396088.40625,681291.375,707334.3125,707291.5625,234882.78125,438102.875,235137.59375,0.0
1772754130.1604393,681512.75,396111.03125,681260.75,707334.9375,707291.75,234881.890625,438079.71875,235152.875,0.0
1772754130.1738532,681346.75,396118.78125,681216.0,707334.0625,707289.9375,234879.5625,438044.21875,235151.359375,0.0
1772754130.1739023,681176.5,396119.0625,681167.3125,707332.875,707286.5625,234879.921875,438007.3125,235147.609375,0.0
1772754130.1761172,680866.8125,396109.0625,681113.625,707331.8125,707284.25,234878.3125,437967.625,235140.71875,0.0
1772754130.1787784,680440.125,396081.5,681053.1875,707333.0625,707288.8125,234866.953125,437919.34375,235127.9375,0.0
1772754130.1810205,680454.125,396053.09375,680995.375,707331.4375,707287.375,234857.65625,437869.09375,235114.796875,0.0
1772754130.1848793,680530.4375,396021.78125,680937.8125,707327.0625,707282.8125,234849.078125,437820.53125,235099.59375,0.0
1772754130.1954055,680602.5,395990.40625,680883.625,707327.0625,707283.0625,234842.734375,437773.25,235088.0625,0.0
1772754130.195458,680672.9375,395962.5,680829.0625,707326.25,707283.6875,234838.875,437725.21875,235079.390625,0.0
1772754130.1973283,680750.5,395941.9375,680777.9375,707324.125,707283.625,234835.65625,437682.125,235070.359375,0.0
1772754130.199715,680827.5625,395923.0,680727.5,707320.5625,707283.1875,234834.953125,437640.28125,235061.0625,0.0
1772754130.2093697,680909.0625,395908.96875,680679.0625,707318.6875,707284.25,234837.359375,437602.21875,235055.421875,0.0
1772754130.2094429,680985.5625,395890.8125,680632.0,707317.0625,707286.5,234838.703125,437563.84375,235050.6875,0.0
1772754130.2107935,681049.625,395865.5,680581.875,707311.0625,707284.875,234834.140625,437522.90625,235043.0,0.0
1772754130.2145312,681125.125,395852.8125,680536.625,707304.375,707282.25,234831.90625,437483.65625,235034.953125,0.0
1772754130.228858,681198.125,395835.90625,680487.4375,707299.0,707282.4375,234830.65625,437442.15625,235026.453125,0.0
1772754130.2289026,681270.375,395810.625,680436.1875,707290.4375,707280.125,234829.859375,437399.6875,235017.15625,0.0
1772754130.2346857,681584.125,395803.1875,680391.1875,707285.0625,707281.75,234835.9375,437363.84375,235014.125,0.0
1772754130.2372687,681760.3125,395821.15625,680349.9375,707283.0625,707287.25,234844.34375,437330.5,235012.875,0.0
1772754130.2397249,681604.0625,395843.96875,680293.5,707285.125,707291.8125,234853.015625,437300.09375,235017.78125,0.0
1772754130.2419927,681421.5625,395849.9375,680087.0625,707310.1875,707293.375,234850.0625,437257.1875,235009.921875,0.0
1772754130.2449672,681219.9375,395835.03125,680151.5625,707317.25,707286.625,234834.59375,437199.6875,234986.578125,0.0
1772754130.2518897,680936.1875,395823.3125,680417.4375,707317.5,707281.5,234827.078125,437145.96875,234967.453125,0.0
1772754130.251978,680466.625,395808.1875,680813.4375,707324.8125,707286.375,234822.078125,437099.375,234956.28125,0.0
1772754130.2653933,680429.875,395789.40625,680928.125,707331.1875,707288.375,234823.953125,437061.84375,234953.59375,0.0
1772754130.265442,680510.3125,395772.0625,680837.0,707330.0,707288.5625,234828.25,437025.4375,234952.15625,0.0
1772754130.2673619,680591.875,395758.3125,680753.0625,707327.5,707288.625,234832.09375,436991.46875,234953.5,0.0
1772754130.2695537,680661.25,395735.34375,680666.375,707321.875,707288.4375,234831.015625,436949.34375,234944.65625,0.0
1772754130.2742329,680736.625,395718.78125,680583.9375,707312.875,707286.9375,234831.546875,436908.3125,234938.390625,0.0
1772754130.2742853,680806.0,395699.21875,680503.75,707303.5625,707285.9375,234831.375,436868.25,234933.46875,0.0
1772754130.2986133,680865.8125,395674.34375,680427.0,707294.0,707286.5,234829.671875,436828.03125,234927.65625,0.0
1772754130.3039155,680931.4375,395656.84375,680357.25,707283.625,707285.5625,234830.828125,436789.9375,234923.109375,0.0
1772754130.305698,680997.875,395640.28125,680201.0625,707289.625,707286.9375,234828.421875,436746.75,234915.140625,0.0
1772754130.3088264,681042.125,395603.09375,680024.6875,707310.375,707284.4375,234807.234375,436682.375,234888.0625,0.0
1772754130.313784,681093.375,395575.90625,680209.375,707309.625,707279.3125,234793.203125,436624.53125,234867.3125,0.0
1772754130.315908,681139.25,395544.4375,680443.1875,707308.375,707275.5,234779.6875,436565.875,234843.4375,0.0
1772754130.3181725,681199.0625,395525.21875,680814.3125,707312.375,707274.875,234776.75,436519.65625,234831.734375,0.0
1772754130.32135,681290.5,395520.65625,680915.375,707321.625,707278.0,234786.578125,436488.65625,234836.109375,0.0
1772754130.3237224,681624.875,395524.25,680816.8125,707324.0,707283.0625,234797.75,436463.34375,234846.921875,0.0
1772754130.3262675,681767.125,395546.21875,680724.375,707324.625,707289.3125,234810.546875,436440.09375,234861.0625,0.0
1772754130.3262842,681597.6875,395566.25,680631.375,707321.625,707292.75,234821.53125,436413.0,234868.65625,0.0
1772754130.3282835,681416.5625,395580.46875,680537.875,707313.5,707293.25,234828.953125,436381.4375,234871.78125,0.0
1772754130.3313951,681236.875,395592.625,680446.0625,707302.5,707291.5,234833.078125,436347.03125,234872.046875,0.0
1772754130.33328,681002.3125,395602.46875,680331.3125,707292.4375,707288.625,234836.734375,436313.21875,234872.40625,0.0
1772754130.3400793,680508.375,395583.53125,680067.25,707312.6875,707292.75,234823.59375,436261.0,234855.515625,0.0
1772754130.3401191,680370.9375,395537.375,680092.875,707315.0625,707288.4375,234800.96875,436194.65625,234825.5625,0.0
1772754130.3423505,680417.6875,395496.15625,680295.5625,707316.4375,707285.3125,234784.515625,436134.15625,234800.890625,0.0
1772754130.353388,680471.8125,395464.875,680537.6875,707314.4375,707280.8125,234776.125,436081.3125,234782.109375,0.0
1772754130.3566527,680541.875,395451.0,680884.4375,707320.875,707279.5,234782.640625,436044.1875,234778.984375,0.0
1772754130.3566985,680614.5625,395437.6875,680872.25,707325.5625,707282.4375,234793.828125,436016.84375,234784.171875,0.0
1772754130.3586528,680687.5625,395427.0625,680743.4375,707323.9375,707285.9375,234798.921875,435983.65625,234784.4375,0.0
1772754130.3671916,680751.5625,395409.1875,680614.125,707315.0,707285.875,234796.328125,435944.78125,234778.078125,0.0
1772754130.371643,680806.375,395384.59375,680486.5625,707297.375,707281.5625,234791.5,435901.6875,234765.65625,0.0
1772754130.3716977,680866.5625,395365.71875,680366.75,707284.625,707282.625,234792.65625,435866.28125,234762.265625,0.0
1772754130.3849242,680929.3125,395350.0,680113.4375,707297.3125,707285.0625,234792.21875,435826.9375,234752.875,0.0
1772754130.3876252,680968.1875,395314.3125,680020.0,707309.5625,707283.0,234778.265625,435768.125,234725.515625,0.0
1772754130.3877623,680992.4375,395271.65625,680190.875,707306.75,707277.875,234760.921875,435702.65625,234694.578125,0.0
1772754130.389896,681026.5,395242.6875,680368.375,707308.5,707276.75,234752.421875,435644.46875,234673.03125,0.0
1772754130.3962631,681073.4375,395224.5625,680621.5,707308.75,707276.5625,234748.046875,435593.78125,234655.15625,0.0
1772754130.4013724,681130.8125,395214.34375,680892.8125,707319.1875,707278.4375,234755.375,435559.0625,234651.21875,0.0
1772754130.401422,681184.375,395203.28125,680795.1875,707322.125,707282.75,234766.46875,435526.625,234652.5625,0.0
1772754130.403414,681229.25,395186.5625,680643.4375,707314.125,707283.375,234771.375,435487.71875,234647.28125,0.0
1772754130.4123256,681279.25,395174.375,680499.3125,707299.625,707282.25,234773.171875,435448.3125,234640.125,0.0
1772754130.4151282,681479.5,395169.65625,680348.625,707288.875,707285.9375,234779.25,435414.25,234636.546875,0.0
1772754130.4151876,681761.125,395169.84375,680058.5625,707310.1875,707292.75,234783.890625,435375.71875,234627.078125,0.0
1772754130.4173017,681608.875,395168.84375,680034.75,707318.3125,707292.125,234779.609375,435324.46875,234607.40625,0.0
1772754130.426051,681401.8125,395171.0,680208.125,707318.8125,707289.5,234774.515625,435273.34375,234589.4375,0.0
1772754130.430112,681192.4375,395170.1875,680374.6875,707320.625,707285.6875,234774.78125,435226.125,234576.109375,0.0
1772754130.4301615,680814.4375,395160.625,680557.375,707317.3125,707283.1875,234767.0,435173.09375,234557.078125,0.0
1772754130.4408298,680399.125,395144.25,680856.25,707326.6875,707289.3125,234758.234375,435120.0,234537.671875,0.0
1772754130.443855,680403.25,395124.84375,680821.375,707327.6875,707288.625,234756.265625,435075.46875,234525.78125,0.0
1772754130.4439044,680444.875,395098.9375,680642.9375,707314.75,707285.0625,234752.6875,435027.375,234508.703125,0.0
1772754130.44959,680499.9375,395087.75,680489.9375,707299.0,707283.25,234760.296875,434990.0,234503.421875,0.0
1772754130.4541214,680563.0625,395084.96875,680308.75,707289.875,707284.875,234768.96875,434957.28125,234504.046875,0.0
1772754130.454175,680597.625,395054.21875,679997.25,707309.625,707284.0,234757.703125,434901.21875,234480.984375,0.0
1772754130.4598277,680627.9375,395022.5625,680037.3125,707309.1875,707281.1875,234745.453125,434843.46875,234456.046875,0.0
1772754130.468583,680663.125,394998.96875,680196.1875,707307.0625,707276.4375,234733.5625,434787.40625,234433.875,0.0
1772754130.4728632,680693.875,394971.71875,680340.4375,707308.125,707275.0625,234726.046875,434732.875,234413.390625,0.0
1772754130.4729114,680726.6875,394948.46875,680478.75,707306.125,707274.125,234719.078125,434677.875,234393.71875,0.0
1772754130.4748685,680768.5625,394934.96875,680749.125,707309.4375,707274.75,234721.578125,434629.875,234383.625,0.0
1772754130.4810913,680834.5,394945.78125,680877.0,707322.125,707281.125,234741.34375,434605.46875,234394.53125,0.0
1772754130.489915,680889.3125,394947.21875,680715.0625,707319.5625,707285.3125,234754.84375,434579.1875,234399.890625,0.0
1772754130.492608,680932.5,394937.0,680541.4375,707306.9375,707287.1875,234760.203125,434543.25,234394.984375,0.0
1772754130.4926531,680980.25,394931.90625,680353.1875,707291.375,707287.25,234765.390625,434507.03125,234391.671875,0.0
1772754130.4949052,681017.875,394916.1875,680029.125,707310.4375,707288.6875,234758.140625,434463.46875,234380.5,0.0
1772754130.5086248,681044.1875,394888.75,680009.1875,707310.8125,707284.0,234743.21875,434403.40625,234352.15625,0.0
1772754130.5118124,681067.0625,394858.34375,680154.6875,707305.25,707278.0,234730.875,434344.125,234325.15625,0.0
1772754130.5118735,681092.1875,394832.6875,680297.1875,707310.5,707279.125,234727.296875,434295.125,234309.5,0.0
1772754130.5131977,681125.875,394815.96875,680429.5,707309.125,707277.375,234720.5,434248.1875,234294.125,0.0
1772754130.5175855,681156.3125,394799.15625,680620.5625,707307.0625,707275.9375,234717.203125,434197.59375,234278.65625,0.0
1772754130.520762,681205.75,394802.1875,680868.9375,707321.0625,707281.125,234729.8125,434168.0,234283.578125,0.0
1772754130.5256312,681252.125,394801.03125,680747.8125,707319.125,707282.0,234739.015625,434140.71875,234290.015625,0.0
1772754130.525706,681300.875,394792.90625,680560.6875,707305.6875,707282.1875,234743.9375,434106.3125,234290.8125,0.0
1772754130.5391681,681576.6875,394797.1875,680361.1875,707291.5625,707285.375,234750.1875,434074.21875,234292.6875,0.0
1772754130.5392168,681744.6875,394808.90625,680030.5,707313.8125,707292.625,234751.796875,434035.125,234286.171875,0.0
1772754130.5406709,681540.5625,394811.84375,680008.375,707316.1875,707289.4375,234746.875,433985.34375,234269.8125,0.0
1772754130.5436392,681330.3125,394823.8125,680156.375,707313.1875,707285.0625,234747.78125,433942.34375,234259.53125,0.0
1772754130.5470445,681098.75,394834.90625,680296.8125,707317.25,707282.375,234748.140625,433901.84375,234254.875,0.0
1772754130.5614123,680605.125,394826.5,680418.5,707319.3125,707285.5625,234743.65625,433853.09375,234241.734375,0.0
1772754130.5614667,680360.6875,394792.96875,680548.3125,707316.1875,707286.1875,234734.09375,433798.75,234221.53125,0.0
1772754130.5649264,680405.3125,394780.03125,680820.6875,707324.375,707287.375,234736.59375,433760.21875,234219.375,0.0
1772754130.564999,680464.5625,394779.3125,680787.0625,707329.0625,707291.125,234747.59375,433733.9375,234227.875,0.0
1772754130.5650218,680520.6875,394777.25,680588.8125,707316.625,707291.8125,234756.265625,433703.0,234230.203125,0.0
1772754130.5682516,680572.5625,394771.875,680376.3125,707298.4375,707290.6875,234762.4375,433671.53125,234232.25,0.0
1772754130.5773425,680604.1875,394750.6875,680025.375,707314.8125,707291.125,234756.265625,433626.09375,234220.28125,0.0
1772754130.5838375,680627.125,394724.40625,679983.75,707315.8125,707286.625,234742.40625,433570.65625,234199.359375,0.0
1772754130.583879,680660.625,394707.59375,680110.6875,707311.25,707284.125,234734.90625,433518.71875,234182.640625,0.0
1772754130.597597,680689.125,394685.6875,680223.625,707313.1875,707282.125,234727.65625,433465.4375,234163.140625,0.0
1772754130.5976486,680715.6875,394664.0625,680326.25,707313.125,707280.125,234722.921875,433414.125,234146.34375,0.0
1772754130.6197388,680744.6875,394643.21875,680424.75,707310.6875,707277.5625,234718.0,433361.71875,234133.109375,0.0
1772754130.619788,680767.9375,394621.78125,680530.75,707307.6875,707277.0625,234714.875,433312.625,234119.6875,0.0
1772754130.6197968,680809.875,394619.09375,680784.4375,707315.6875,707280.6875,234721.3125,433275.8125,234118.796875,0.0
1772754130.6224148,680859.375,394621.84375,680797.6875,707325.0,707287.125,234735.4375,433248.875,234128.28125,0.0
1772754130.6312852,680905.5,394622.9375,680587.125,707314.125,707289.9375,234745.0,433222.96875,234138.828125,0.0
1772754130.6313305,680943.625,394617.28125,680324.1875,707297.1875,707288.8125,234747.421875,433185.21875,234135.421875,0.0
1772754130.6313384,680972.5625,394605.40625,679970.875,707317.75,707289.875,234743.3125,433140.34375,234123.71875,0.0
1772754130.631344,680993.5625,394586.0,679980.6875,707315.8125,707287.5625,234734.984375,433087.59375,234103.78125,0.0
1772754130.6337144,681014.75,394565.875,680087.4375,707309.75,707285.3125,234729.890625,433033.96875,234086.171875,0.0
1772754130.636217,681034.6875,394546.125,680183.9375,707311.6875,707282.75,234723.640625,432981.84375,234069.625,0.0
1772754130.6412144,681053.9375,394528.875,680272.6875,707312.75,707281.125,234719.34375,432933.46875,234054.78125,0.0
1772754130.6439147,681080.5625,394520.46875,680359.25,707312.125,707279.5,234715.328125,432886.625,234041.109375,0.0
1772754130.6456945,681099.8125,394504.46875,680441.3125,707311.6875,707279.3125,234712.90625,432840.03125,234029.390625,0.0
1772754130.648303,681128.5625,394500.4375,680524.625,707310.1875,707280.6875,234715.140625,432795.96875,234023.3125,0.0
1772754130.6579225,681161.5,394500.96875,680720.0,707311.6875,707280.1875,234718.359375,432754.8125,234015.796875,0.0
1772754130.6579869,681207.375,394511.25,680839.625,707324.5,707285.5625,234733.375,432734.625,234026.265625,0.0
1772754130.66635,681252.875,394519.125,680632.625,707315.6875,707287.8125,234743.65625,432713.53125,234036.453125,0.0
1772754130.6663947,681292.9375,394521.09375,680377.125,707295.9375,707286.5,234748.140625,432684.28125,234037.796875,0.0
1772754130.6691523,681334.375,394514.21875,679995.875,707313.5,707287.4375,234743.3125,432643.15625,234030.203125,0.0
1772754130.6692033,681586.4375,394499.1875,679938.3125,707321.1875,707289.5,234732.84375,432594.6875,234015.71875,0.0
1772754130.6797166,681730.3125,394514.375,680043.625,707314.75,707291.3125,234734.09375,432555.71875,234010.96875,0.0
1772754130.682926,681526.625,394532.09375,680142.25,707317.0625,707291.375,234737.578125,432516.75,234007.21875,0.0
1772754130.6829753,681302.0625,394539.6875,680226.0,707321.5,707290.75,234739.1875,432476.6875,234001.046875,0.0
1772754130.6848965,681047.125,394558.8125,680307.8125,707325.4375,707289.9375,234741.515625,432441.375,233998.015625,0.0
1772754130.6932657,680531.0,394554.09375,680373.4375,707326.8125,707292.625,234732.84375,432395.59375,233984.6875,0.0
1772754130.6978683,680357.875,394527.4375,680427.8125,707324.375,707292.1875,234723.1875,432343.8125,233964.65625,0.0
1772754130.697918,680380.9375,394502.6875,680479.75,707321.375,707289.9375,234717.46875,432291.78125,233948.203125,0.0
1772754130.7007444,680417.625,394489.53125,680531.0,707316.5,707286.9375,234712.28125,432243.6875,233935.6875,0.0
1772754130.711105,680444.5625,394469.6875,680616.8125,707311.5,707284.4375,234706.828125,432195.59375,233924.78125,0.0
1772754130.7140245,680484.25,394464.59375,680834.25,707325.125,707288.625,234717.828125,432165.1875,233930.78125,0.0
1772754130.7140925,680534.1875,394469.5,680712.375,707326.875,707293.0625,234732.671875,432145.78125,233944.640625,0.0
1772754130.7161615,680585.8125,394476.21875,680446.0625,707306.25,707292.0,234742.859375,432123.0625,233953.84375,0.0
1772754130.7247272,680622.8125,394469.25,680039.9375,707318.6875,707294.875,234740.890625,432086.40625,233951.25,0.0
1772754130.728212,680635.3125,394441.0,679900.6875,707328.0625,707292.1875,234724.359375,432031.78125,233931.046875,0.0
1772754130.7380655,680656.0,394421.9375,679975.25,707318.3125,707289.3125,234714.25,431983.6875,233919.78125,0.0
1772754130.7381086,680682.1875,394406.90625,680044.625,707309.625,707285.9375,234705.9375,431932.8125,233906.90625,0.0
1772754130.7420473,680707.5,394390.5625,680114.0625,707312.75,707286.8125,234704.765625,431887.9375,233900.015625,0.0
1772754130.7445807,680726.8125,394371.4375,680173.0625,707314.8125,707286.125,234696.453125,431842.0625,233887.0625,0.0
1772754130.748274,680753.8125,394360.59375,680228.6875,707316.3125,707285.9375,234691.546875,431799.59375,233876.421875,0.0
1772754130.7576067,680773.4375,394342.5625,680276.8125,707316.9375,707285.5,234687.875,431756.15625,233866.40625,0.0
1772754130.7576468,680796.25,394328.0625,680326.1875,707316.5,707283.6875,234686.71875,431717.34375,233862.5625,0.0
1772754130.7600188,680819.25,394315.71875,680371.3125,707317.3125,707284.125,234683.140625,431675.6875,233855.40625,0.0
1772754130.7623026,680844.8125,394304.375,680415.5625,707319.4375,707286.3125,234682.875,431633.9375,233848.703125,0.0
1772754130.7763925,680871.5625,394294.96875,680458.125,707317.875,707285.375,234683.40625,431595.5,233840.03125,0.0
1772754130.776441,680894.0625,394282.28125,680499.25,707318.125,707286.1875,234683.9375,431558.65625,233833.953125,0.0
1772754130.7785616,680912.6875,394265.125,680536.1875,707315.25,707285.5,234682.515625,431517.96875,233827.0625,0.0
1772754130.7808478,680937.8125,394254.21875,680575.5,707310.0625,707283.625,234679.109375,431475.5,233818.484375,0.0
1772754130.7947567,680969.625,394252.78125,680753.4375,707317.25,707285.0625,234684.75,431442.4375,233818.296875,0.0
1772754130.798182,681017.125,394264.9375,680770.6875,707327.8125,707291.75,234704.859375,431428.125,233837.171875,0.0
1772754130.798224,681057.0,394266.5625,680501.9375,707312.3125,707295.75,234721.3125,431410.25,233852.28125,0.0
1772754130.7982323,681086.375,394256.71875,680081.0625,707317.0625,707296.9375,234721.3125,431378.0625,233853.625,0.0
1772754130.801221,681105.625,394240.34375,679888.5,707332.625,707295.625,234708.4375,431331.125,233839.3125,0.0
1772754130.803842,681125.25,394224.625,679941.8125,707325.75,707293.375,234701.203125,431283.28125,233827.515625,0.0
1772754130.8075037,681143.4375,394205.65625,679996.8125,707317.125,707291.125,234696.1875,431238.21875,233817.765625,0.0
1772754130.8198318,681158.0,394184.03125,680044.375,707311.875,707290.875,234690.28125,431197.34375,233807.21875,0.0
1772754130.8230426,681179.1875,394173.75,680088.1875,707313.3125,707290.4375,234688.046875,431160.0625,233800.59375,0.0
1772754130.82313,681203.6875,394167.03125,680130.1875,707316.875,707291.125,234685.1875,431121.09375,233795.6875,0.0
1772754130.8246696,681225.875,394156.40625,680166.8125,707319.9375,707291.8125,234682.15625,431080.15625,233788.171875,0.0
1772754130.8271077,681249.75,394147.46875,680201.6875,707319.3125,707289.8125,234679.828125,431039.375,233781.28125,0.0
1772754130.8360772,681270.375,394136.1875,680233.6875,707319.5625,707289.1875,234678.484375,431000.03125,233774.671875,0.0
1772754130.8388672,681286.0625,394119.375,680261.8125,707320.0,707288.625,234677.140625,430958.90625,233767.703125,0.0
1772754130.8389163,681306.0625,394109.46875,680288.3125,707321.625,707289.1875,234677.140625,430921.625,233765.90625,0.0
1772754130.8451474,681406.9375,394105.8125,680313.5625,707322.5,707289.625,234677.328125,430886.03125,233761.796875,0.0
1772754130.8541431,681735.5625,394119.46875,680343.0625,707325.25,707294.0,234684.296875,430858.0625,233765.28125,0.0
1772754130.8541882,681653.375,394140.65625,680372.625,707329.125,707298.5625,234692.4375,430835.34375,233772.96875,0.0
1772754130.8564153,681434.375,394160.875,680403.875,707330.9375,707299.5,234696.71875,430808.25,233779.234375,0.0
1772754130.8564644,681220.75,394180.53125,680431.75,707329.3125,707295.25,234701.28125,430780.8125,233785.3125,0.0
1772754130.8649695,680859.5,394192.96875,680449.8125,707329.125,707293.375,234703.609375,430748.4375,233784.859375,0.0
1772754130.87666,680390.875,394176.25,680454.25,707330.625,707297.9375,234696.8125,430705.96875,233776.375,0.0
1772754130.8767092,680353.25,394151.65625,680461.0,707329.375,707297.1875,234693.234375,430664.40625,233767.609375,0.0
1772754130.8789904,680393.3125,394143.09375,680473.125,707327.9375,707296.125,234692.703125,430628.375,233763.578125,0.0
1772754130.8790357,680419.4375,394123.59375,680476.875,707324.9375,707292.9375,234684.921875,430587.5,233753.578125,0.0
1772754130.892449,680445.5,394110.53125,680479.9375,707324.375,707292.375,234679.296875,430546.5625,233744.265625,0.0
1772754130.897308,680475.5625,394099.625,680483.3125,707325.1875,707292.8125,234678.84375,430513.03125,233743.296875,0.0
1772754130.897357,680502.0,394086.5625,680487.375,707324.9375,707292.5625,234682.0625,430481.9375,233744.71875,0.0
1772754130.897366,680533.5625,394079.0625,680490.6875,707323.125,707290.3125,234682.953125,430449.65625,233743.296875,0.0
1772754130.900653,680563.5625,394068.5,680488.3125,707324.8125,707291.3125,234678.9375,430409.875,233735.875,0.0
1772754130.9007277,680586.0,394051.34375,680483.8125,707324.9375,707290.6875,234674.546875,430368.375,233727.640625,0.0
1772754130.9084196,680609.375,394038.28125,680483.3125,707323.125,707289.25,234672.9375,430332.0625,233724.875,0.0
1772754130.9376209,680629.6875,394024.09375,680477.8125,707321.6875,707288.625,234671.328125,430294.09375,233720.484375,0.0
1772754130.9376614,680656.3125,394016.75,680478.4375,707321.6875,707288.875,234672.671875,430262.25,233722.640625,0.0
1772754130.9405,680687.875,394012.375,680477.0,707324.8125,707291.75,234668.65625,430229.53125,233721.109375,0.0
1772754130.9405727,680714.1875,394002.53125,680476.375,707324.3125,707291.3125,234669.71875,430196.90625,233720.578125,0.0
1772754130.9433625,680737.0,393991.8125,680470.5625,707323.25,707290.5,234670.96875,430161.5,233718.875,0.0
1772754130.943432,680758.875,393979.1875,680464.1875,707324.75,707291.5625,234671.328125,430127.4375,233717.984375,0.0
1772754130.9434645,680783.5,393967.5,680457.5625,707325.75,707292.75,234672.578125,430093.28125,233716.640625,0.0
1772754130.9494815,680805.9375,393957.03125,680450.625,707325.75,707293.0625,234670.890625,430055.53125,233713.421875,0.0
1772754130.949553,680826.8125,393948.34375,680444.0,707324.125,707291.375,234668.828125,430019.875,233712.0,0.0
1772754130.9507034,680850.8125,393941.03125,680438.125,707324.75,707292.0,234669.09375,429987.0625,233711.109375,0.0
1772754130.9536233,680868.4375,393928.5,680426.125,707323.75,707291.125,234667.484375,429950.5625,233705.375,0.0
1772754130.9582708,680883.0,393914.1875,680418.5,707324.8125,707292.3125,234665.515625,429918.65625,233703.59375,0.0
1772754130.9636912,680906.5,393906.5,680413.0,707326.0,707293.4375,234668.390625,429887.8125,233703.765625,0.0
1772754130.9661276,680925.75,393895.59375,680403.6875,707325.125,707292.4375,234669.640625,429857.0625,233705.203125,0.0
1772754130.9691288,680943.125,393887.65625,680391.625,707324.9375,707292.1875,234664.53125,429824.59375,233703.328125,0.0
1772754130.9691937,680963.75,393879.78125,680380.625,707326.0625,707293.0625,234662.125,429793.03125,233702.515625,0.0
1772754130.9796169,680986.25,393875.84375,680370.4375,707326.4375,707293.8125,234664.984375,429763.90625,233704.578125,0.0
1772754130.9828684,681003.0625,393865.90625,680352.0625,707325.8125,707293.375,234660.96875,429726.0,233698.765625,0.0
1772754130.982918,681018.0625,393854.84375,680335.4375,707324.0,707292.0,234658.8125,429690.3125,233695.359375,0.0
1772754130.9846573,681037.8125,393849.8125,680317.75,707324.125,707292.4375,234656.671875,429653.9375,233691.796875,0.0
1772754130.9935372,681058.6875,393846.15625,680303.4375,707325.625,707294.0625,234657.5625,429621.125,233691.4375,0.0
1772754130.9961357,681072.6875,393834.28125,680288.4375,707325.75,707294.3125,234661.046875,429590.09375,233692.6875,0.0
1772754130.9996035,681086.8125,393822.03125,680271.0625,707325.375,707294.875,234660.609375,429556.1875,233689.203125,0.0
1772754131.005768,681108.125,393816.84375,680258.5,707324.9375,707294.6875,234658.453125,429523.9375,233685.53125,0.0
1772754131.0104742,681119.3125,393803.96875,680240.125,707324.125,707293.8125,234656.3125,429491.03125,233681.328125,0.0
1772754131.010523,681127.0625,393790.5625,680221.125,707324.8125,707295.75,234652.296875,429457.125,233678.203125,0.0
1772754131.0206275,681143.0,393785.375,680204.125,707325.875,707297.125,234653.546875,429425.9375,233678.203125,0.0
1772754131.0291185,681154.625,393773.65625,680182.5625,707324.1875,707295.75,234651.390625,429389.375,233671.5,0.0
1772754131.0291684,681163.0,393757.90625,680158.0,707321.6875,707294.1875,234648.71875,429352.09375,233666.578125,0.0
1772754131.0332742,681179.25,393751.125,680141.625,707322.6875,707296.5,234653.546875,429321.25,233666.9375,0.0
1772754131.0359423,681196.375,393744.25,680123.5625,707322.25,707297.0,234655.859375,429290.3125,233665.78125,0.0
1772754131.038613,681201.75,393726.71875,680098.1875,707320.5625,707296.9375,234652.734375,429253.375,233659.875,0.0
1772754131.0407925,681210.375,393714.65625,680074.9375,707317.9375,707295.9375,234650.5,429218.25,233656.296875,0.0
1772754131.0432818,681219.0625,393703.09375,680055.1875,707317.875,707296.6875,234652.921875,429189.53125,233658.078125,0.0
1772754131.049759,681223.625,393689.15625,680029.875,707319.125,707296.5625,234652.109375,429155.40625,233654.421875,0.0
1772754131.05302,681230.3125,393676.28125,680001.625,707321.6875,707296.25,234650.765625,429119.09375,233648.703125,0.0
1772754131.053082,681235.9375,393663.5,679974.625,707323.5,707294.8125,234648.625,429083.0625,233642.171875,0.0
1772754131.0608819,681245.5,393656.0,679949.875,707327.125,707295.3125,234649.25,429048.375,233636.984375,0.0
1772754131.0656445,681254.125,393648.21875,679925.875,707332.625,707298.5625,234648.984375,429016.09375,233635.375,0.0
1772754131.0657177,681261.625,393639.375,679902.25,707336.125,707300.0625,234650.953125,428984.0,233633.3125,0.0
1772754131.0736437,681276.125,393635.96875,679878.5625,707336.75,707299.375,234651.84375,428951.71875,233631.796875,0.0
1772754131.0757806,681281.5625,393622.5625,679851.125,707337.8125,707299.0,234651.03125,428915.25,233625.09375,0.0
1772754131.090117,681286.6875,393608.25,679827.6875,707338.4375,707299.0,234652.203125,428884.5,233622.59375,0.0
1772754131.0902388,681299.25,393603.59375,679807.4375,707339.0625,707298.875,234651.84375,428855.25,233619.8125,0.0
1772754131.0923753,681313.6875,393600.46875,679789.25,707341.8125,707300.875,234656.578125,428827.53125,233621.0625,0.0
1772754131.0956352,681315.0625,393584.1875,679758.6875,707342.0625,707300.25,234653.8125,428791.40625,233613.65625,0.0
1772754131.095718,681322.875,393576.0625,679732.5625,707340.75,707298.125,234652.375,428757.09375,233608.203125,0.0
1772754131.1061027,681328.875,393566.75,679708.4375,707339.5625,707296.75,234653.1875,428725.15625,233605.515625,0.0
1772754131.109023,681335.75,393556.40625,679685.125,707339.875,707296.9375,234652.640625,428695.21875,233604.34375,0.0
1772754131.1090832,681478.8125,393550.40625,679665.875,707344.5625,707301.6875,234654.609375,428667.0625,233607.75,0.0
1772754131.111143,681748.25,393571.40625,679654.8125,707349.9375,707308.3125,234661.234375,428647.65625,233617.40625,0.0
1772754131.1170335,681591.875,393602.625,679644.0625,707353.5,707312.25,234669.1875,428629.3125,233626.171875,0.0
1772754131.1237104,681359.5,393622.1875,679626.75,707353.625,707310.5,234675.71875,428604.46875,233630.375,0.0
1772754131.1237638,681063.5,393629.96875,679602.0625,707351.3125,707305.3125,234675.265625,428575.125,233630.546875,0.0
1772754131.1301882,680527.75,393630.40625,679574.6875,707353.875,707310.625,234670.625,428542.0625,233628.140625,0.0
1772754131.1325457,680359.5,393613.0,679542.9375,707352.5625,707310.8125,234660.15625,428504.6875,233619.109375,0.0
1772754131.132562,680366.1875,393591.96875,679508.25,707350.9375,707309.375,234654.890625,428463.46875,233606.9375,0.0
1772754131.141132,680375.0,393576.40625,679482.125,707350.75,707309.25,234654.25,428428.78125,233601.046875,0.0
1772754131.143777,680390.4375,393567.375,679455.9375,707350.3125,707308.75,234651.125,428396.59375,233597.015625,0.0
1772754131.1475887,680397.0625,393546.75,679427.25,707348.5,707306.75,234649.875,428362.53125,233592.375,0.0
1772754131.156227,680408.125,393535.5625,679397.6875,707346.8125,707305.0,234648.09375,428325.34375,233585.390625,0.0
1772754131.1601784,680420.0625,393523.40625,679372.0,707349.4375,707307.375,234647.90625,428293.5,233583.34375,0.0
1772754131.16022,680429.25,393509.28125,679344.75,707349.4375,707306.9375,234650.5,428263.375,233582.0,0.0
1772754131.162233,680442.0,393501.40625,679316.9375,707348.5,707306.0625,234652.5625,428233.15625,233579.046875,0.0
1772754131.1761737,680456.875,393497.375,679289.3125,707347.875,707305.6875,234651.3125,428203.9375,233575.109375,0.0
1772754131.1795638,680461.625,393484.96875,679256.9375,707347.625,707305.9375,234647.640625,428169.9375,233568.859375,0.0
1772754131.1796272,680464.375,393468.40625,679222.9375,707347.4375,707305.1875,234644.78125,428135.34375,233563.140625,0.0
1772754131.1796365,680475.3125,393457.40625,679193.1875,707347.5625,707305.4375,234643.078125,428102.90625,233559.015625,0.0
1772754131.1822898,680488.25,393452.3125,679163.25,707348.6875,707306.3125,234641.46875,428070.34375,233556.15625,0.0
1772754131.1848905,680497.375,393441.59375,679133.0,707348.875,707306.0625,234638.4375,428039.40625,233553.296875,0.0
1772754131.1885235,680502.375,393427.46875,679103.8125,707349.0,707305.875,234635.125,428009.71875,233551.0625,0.0
1772754131.1973467,680507.1875,393413.0625,679074.125,707349.5,707306.5625,234632.796875,427980.3125,233549.453125,0.0
1772754131.2017953,680517.9375,393406.46875,679044.25,707351.1875,707308.1875,234629.765625,427950.8125,233547.9375,0.0
1772754131.201858,680523.0625,393396.34375,679008.375,707349.6875,707306.9375,234624.84375,427916.03125,233541.5,0.0
1772754131.2071152,680541.25,393397.96875,678983.0625,707349.4375,707306.75,234629.578125,427891.625,233543.203125,0.0
1772754131.227419,680550.125,393388.5625,678954.9375,707351.1875,707308.125,234629.765625,427862.03125,233542.75,0.0
1772754131.2275193,680551.125,393371.9375,678919.625,707353.0,707309.4375,234627.875,427825.1875,233539.0,0.0
1772754131.227545,680558.0,393362.46875,678890.9375,707350.9375,707307.0625,234627.34375,427792.5625,233538.90625,0.0
1772754131.2344136,680566.0625,393355.21875,678863.5625,707349.625,707305.6875,234628.15625,427763.875,233538.8125,0.0
1772754131.234477,680575.6875,393348.0625,678833.9375,707349.4375,707305.3125,234627.171875,427734.09375,233535.15625,0.0
1772754131.2356904,680583.75,393339.40625,678806.3125,707349.4375,707305.0,234629.21875,427702.96875,233532.734375,0.0
1772754131.2387388,680592.4375,393332.78125,678778.0625,707349.9375,707305.9375,234634.046875,427675.0,233533.8125,0.0
1772754131.241063,680596.1875,393321.875,678750.625,707353.0625,707309.1875,234637.984375,427648.78125,233535.15625,0.0
1772754131.2436216,680598.3125,393310.0,678720.25,707354.0,707310.375,234639.765625,427621.625,233534.171875,0.0
1772754131.2458024,680612.8125,393307.65625,678693.6875,707356.375,707313.3125,234644.25,427597.03125,233536.046875,0.0
1772754131.2573593,680616.0,393298.71875,678666.4375,707360.125,707316.625,234649.515625,427572.1875,233538.640625,0.0
1772754131.2604065,680623.25,393291.21875,678635.75,707360.6875,707316.875,234649.78125,427545.4375,233538.71875,0.0
1772754131.260456,680627.25,393280.21875,678603.375,707361.875,707318.1875,234648.53125,427517.28125,233538.09375,0.0
1772754131.2622287,680637.125,393278.34375,678576.5625,707362.1875,707318.6875,234651.390625,427493.0625,233541.40625,0.0
1772754131.2689304,680636.375,393266.34375,678538.3125,707360.6875,707317.3125,234641.375,427456.375,233534.078125,0.0
1772754131.275309,680625.6875,393243.46875,678494.1875,707358.875,707314.8125,234627.703125,427412.84375,233518.4375,0.0
1772754131.2753825,680603.0625,393209.3125,678442.0,707354.625,707310.6875,234611.703125,427363.3125,233497.59375,0.0
1772754131.2838798,680606.625,393200.375,678408.0,707351.8125,707308.125,234610.0,427327.65625,233492.40625,0.0
1772754131.2839246,680612.375,393195.90625,678378.9375,707352.75,707309.25,234613.046875,427299.3125,233492.40625,0.0
1772754131.2858493,680615.9375,393191.53125,678348.8125,707354.875,707311.0625,234619.390625,427277.125,233494.921875,0.0
1772754131.29241,680614.75,393180.875,678317.75,707355.25,707311.875,234621.53125,427250.9375,233494.375,0.0
1772754131.2968428,680620.9375,393174.71875,678291.4375,707357.5625,707314.0,234621.265625,427221.78125,233494.296875,0.0
1772754131.296908,680616.1875,393157.46875,678260.875,707359.3125,707315.625,234617.875,427191.3125,233491.78125,0.0
1772754131.304722,680618.8125,393151.90625,678232.1875,707360.4375,707316.4375,234616.703125,427161.53125,233489.546875,0.0
1772754131.30794,680613.5,393138.0625,678195.875,707357.75,707313.75,234613.125,427125.59375,233481.59375,0.0
1772754131.3079891,680609.125,393125.71875,678161.8125,707356.375,707312.5,234614.03125,427096.09375,233477.75,0.0
1772754131.3136094,680606.625,393119.375,678127.9375,707356.6875,707312.9375,234616.265625,427064.59375,233472.921875,0.0
1772754131.3170578,680602.9375,393110.53125,678094.9375,707356.6875,707313.1875,234617.25,427034.375,233470.59375,0.0
1772754131.328636,680599.9375,393099.96875,678062.625,707357.75,707314.1875,234618.9375,427005.59375,233469.171875,0.0
1772754131.334312,680600.625,393092.8125,678028.5,707358.0,707314.1875,234618.9375,426975.5625,233468.71875,0.0
1772754131.3343847,680596.6875,393082.09375,677993.375,707357.9375,707314.125,234619.5625,426945.53125,233464.609375,0.0
1772754131.3361814,680596.0,393075.90625,677963.125,707357.125,707313.5,234621.265625,426916.8125,233462.46875,0.0
1772754131.3387103,680599.75,393074.03125,677934.1875,707359.0625,707315.5625,234623.859375,426892.78125,233466.84375,0.0
1772754131.342062,680600.1875,393068.6875,677902.0,707362.125,707318.1875,234624.84375,426865.5,233467.203125,0.0
1772754131.353861,680600.875,393062.40625,677874.375,707363.25,707319.375,234628.515625,426839.125,233467.828125,0.0
1772754131.3539095,680592.5625,393050.53125,677844.875,707361.5,707318.125,234629.3125,426809.625,233466.03125,0.0
1772754131.3561244,680589.375,393042.40625,677813.375,707361.375,707318.1875,234628.234375,426780.03125,233463.0,0.0
1772754131.358602,680587.0625,393033.625,677779.6875,707361.125,707317.5625,234625.921875,426746.9375,233457.1875,0.0
1772754131.3670485,680586.4375,393029.34375,677746.9375,707361.875,707318.1875,234627.4375,426718.59375,233453.34375,0.0
1772754131.3704147,680575.25,393014.75,677712.625,707363.25,707320.0,234630.5625,426689.09375,233449.3125,0.0
1772754131.3704643,680569.6875,393006.09375,677682.0625,707363.625,707320.4375,234632.078125,426657.1875,233446.015625,0.0
1772754131.3761652,680571.875,393003.9375,677656.75,707364.875,707320.875,234633.609375,426630.0,233446.8125,0.0
1772754131.382933,680572.125,393000.09375,677628.75,707365.3125,707321.25,234633.328125,426601.40625,233444.84375,0.0
1772754131.3829815,680561.3125,392986.25,677594.75,707366.0625,707322.4375,234630.296875,426570.53125,233436.796875,0.0
1772754131.3909063,680560.3125,392982.03125,677569.375,707367.5,707324.0,234634.234375,426547.3125,233436.71875,0.0
1772754131.395134,680556.375,392975.34375,677538.5625,707367.5,707324.375,234632.796875,426519.21875,233431.96875,0.0
1772754131.3951917,680548.625,392966.125,677502.25,707366.9375,707324.375,234631.453125,426491.875,233429.5625,0.0
1772754131.403564,680539.0625,392953.78125,677465.6875,707365.6875,707323.0625,234627.609375,426461.1875,233423.390625,0.0
1772754131.4063833,680538.125,392951.5625,677436.875,707365.625,707323.125,234628.6875,426432.3125,233418.734375,0.0
1772754131.406427,680527.4375,392939.5625,677403.5625,707366.5625,707324.1875,234626.71875,426401.5625,233414.1875,0.0
1772754131.4083211,680514.625,392927.3125,677366.625,707367.3125,707324.9375,234622.515625,426369.1875,233408.734375,0.0
1772754131.4172986,680509.875,392920.96875,677331.5625,707367.375,707324.9375,234623.5,426337.8125,233404.34375,0.0
1772754131.4217288,680500.9375,392909.1875,677298.1875,707368.3125,707326.375,234625.109375,426308.125,233403.453125,0.0
1772754131.421789,680491.0,392898.09375,677263.4375,707369.625,707327.4375,234624.3125,426279.0,233402.65625,0.0
1772754131.4231975,680490.5625,392900.15625,677235.875,707371.0625,707328.875,234627.703125,426252.875,233403.90625,0.0
1772754131.437246,680479.3125,392890.9375,677201.1875,707371.875,707329.5,234627.4375,426221.0625,233398.09375,0.0
1772754131.4406362,680463.9375,392878.6875,677164.875,707371.875,707329.5625,234627.25,426189.125,233391.65625,0.0
1772754131.4407144,680452.0625,392871.71875,677130.3125,707371.3125,707329.1875,234628.515625,426160.0,233387.8125,0.0
1772754131.4428024,680448.8125,392869.84375,677095.5,707371.6875,707330.0,234630.109375,426130.3125,233385.578125,0.0
1772754131.446128,680442.1875,392863.3125,677059.3125,707372.3125,707331.0,234630.65625,426099.90625,233380.921875,0.0
1772754131.4495995,680429.875,392852.21875,677021.25,707371.5,707330.1875,234630.46875,426069.0625,233374.484375,0.0
1772754131.4638915,680416.125,392840.875,676984.375,707372.125,707330.75,234630.75,426038.5,233370.375,0.0
1772754131.4639359,680404.8125,392835.15625,676945.9375,707369.8125,707328.5625,234627.078125,426002.46875,233362.59375,0.0
1772754131.4661152,680394.1875,392828.625,676910.0,707371.0625,707329.75,234626.8125,425970.4375,233358.125,0.0
1772754131.468736,680387.125,392826.03125,676879.0625,707371.9375,707330.75,234629.671875,425943.28125,233356.6875,0.0
1772754131.4707198,680379.0625,392820.65625,676846.0,707373.5625,707332.4375,234630.828125,425913.75,233354.640625,0.0
1772754131.4798205,680369.6875,392815.9375,676815.4375,707373.125,707332.4375,234633.78125,425887.75,233354.640625,0.0
1772754131.4843004,680353.875,392805.65625,676783.5625,707376.25,707335.1875,234636.46875,425862.25,233355.703125,0.0
1772754131.4843533,680337.5,392795.1875,676748.1875,707378.5,707337.625,234635.484375,425831.5,233353.03125,0.0
1772754131.4856932,680326.25,392790.25,676714.125,707378.8125,707338.5,234633.25,425801.1875,233349.625,0.0
1772754131.494918,680317.75,392787.59375,676681.75,707376.6875,707336.4375,234628.515625,425773.75,233348.015625,0.0
1772754131.5014102,680302.75,392778.1875,676648.375,707376.3125,707335.8125,234623.859375,425744.5,233346.6875,0.0
1772754131.5014615,680285.6875,392765.84375,676613.8125,707377.5,707336.875,234623.859375,425714.84375,233342.75,0.0
1772754131.5042903,680276.0625,392762.28125,676583.5,707378.9375,707338.0625,234623.765625,425689.53125,233343.640625,0.0
1772754131.5043612,680268.3125,392758.78125,676554.4375,707378.75,707337.8125,234622.78125,425664.40625,233345.78125,0.0
1772754131.5100129,680254.8125,392751.5625,676524.9375,707379.4375,707338.9375,234624.75,425641.53125,233348.46875,0.0
1772754131.518848,680235.5625,392741.90625,676489.6875,707379.0,707338.6875,234621.0,425612.0,233343.640625,0.0
1772754131.5226831,680216.8125,392730.53125,676455.125,707380.0625,707340.125,234620.109375,425583.75,233340.6875,0.0
1772754131.522732,680210.625,392729.65625,676426.125,707381.9375,707341.75,234622.78125,425561.3125,233341.671875,0.0
1772754131.5312097,680196.3125,392722.40625,676391.25,707381.1875,707340.6875,234620.640625,425531.90625,233336.046875,0.0
1772754131.533876,680182.8125,392716.5,676354.3125,707379.75,707338.75,234617.0625,425500.4375,233331.296875,0.0
1772754131.5339172,680163.375,392703.53125,676317.125,707380.0625,707338.6875,234612.234375,425468.78125,233327.015625,0.0
1772754131.5372684,680147.25,392696.375,676281.5,707381.5,707340.375,234608.390625,425437.3125,233321.921875,0.0
1772754131.5454087,680137.625,392694.78125,676245.625,707381.25,707340.3125,234608.03125,425409.6875,233319.234375,0.0
1772754131.5454807,680119.4375,392683.34375,676209.75,707381.9375,707341.0,234608.03125,425382.15625,233317.0,0.0
1772754131.550989,680101.8125,392674.65625,676172.9375,707381.3125,707340.0,234605.0,425351.5625,233312.265625,0.0
1772754131.575818,680095.3125,392674.84375,676137.5,707380.6875,707339.6875,234601.859375,425322.78125,233308.765625,0.0
1772754131.5792882,680082.8125,392670.1875,676105.3125,707382.4375,707341.75,234604.28125,425296.5,233307.875,0.0
1772754131.5793617,680068.0625,392664.65625,676070.375,707383.125,707342.25,234603.734375,425267.09375,233304.03125,0.0
1772754131.581455,680054.5625,392659.625,676032.9375,707383.5625,707342.625,234605.984375,425237.21875,233301.078125,0.0
1772754131.5833151,680039.1875,392651.875,675993.75,707382.75,707341.625,234608.390625,425208.6875,233298.578125,0.0
1772754131.586151,680022.1875,392640.59375,675954.0,707382.3125,707341.625,234607.765625,425179.46875,233295.546875,0.0
1772754131.5885892,680008.5,392633.0,675915.875,707383.375,707343.0,234609.828125,425151.46875,233294.828125,0.0
1772754131.5911057,679995.5,392626.125,675879.3125,707385.875,707345.3125,234610.890625,425124.9375,233295.546875,0.0
1772754131.5936353,679982.8125,392618.34375,675843.5625,707387.125,707346.1875,234610.453125,425098.28125,233293.65625,0.0
1772754131.5964222,679960.9375,392601.96875,675802.4375,707386.25,707345.5,234608.03125,425067.25,233289.109375,0.0
1772754131.596474,679936.25,392587.5,675762.1875,707385.6875,707344.75,234606.875,425035.78125,233285.171875,0.0
1772754131.5982065,679923.0,392580.6875,675728.5625,707386.5,707345.375,234604.640625,425009.21875,233281.5,0.0
1772754131.6075556,679905.75,392568.625,675692.625,707385.25,707344.4375,234601.953125,424981.25,233277.390625,0.0
1772754131.6116323,679887.6875,392559.15625,675656.6875,707385.4375,707344.875,234601.59375,424953.4375,233273.640625,0.0
1772754131.6116838,679870.1875,392550.21875,675622.875,707386.625,707345.8125,234602.21875,424927.15625,233272.921875,0.0
1772754131.6232443,679855.9375,392545.65625,675587.6875,707387.0625,707346.4375,234600.609375,424900.15625,233271.75,0.0
1772754131.6233177,679839.1875,392537.15625,675547.6875,707387.0625,707346.75,234594.0,424867.25,233267.5625,0.0
1772754131.6313624,679817.9375,392526.59375,675509.875,707388.25,707347.5625,234591.140625,424836.6875,233264.6875,0.0
1772754131.6314049,679802.25,392520.53125,675477.875,707387.6875,707347.0,234591.765625,424809.9375,233263.703125,0.0
1772754131.6340685,679788.9375,392514.4375,675442.3125,707386.0625,707345.6875,234589.53125,424782.21875,233258.171875,0.0
1772754131.6341743,679768.8125,392503.1875,675404.75,707385.4375,707344.6875,234586.390625,424750.9375,233250.828125,0.0
1772754131.6421835,679753.4375,392498.53125,675372.625,707387.0,707345.9375,234589.4375,424725.09375,233249.765625,0.0
1772754131.6514015,679736.0625,392494.25,675337.8125,707387.0625,707346.3125,234588.453125,424693.96875,233242.34375,0.0
1772754131.6514456,679711.5625,392481.28125,675301.125,707387.3125,707346.9375,234587.65625,424662.96875,233237.421875,0.0
1772754131.6580305,679693.9375,392475.1875,675265.75,707386.0625,707345.5625,234585.234375,424634.53125,233234.03125,0.0
1772754131.658095,679677.25,392471.875,675235.75,707386.4375,707345.5,234583.984375,424609.125,233236.359375,0.0
1772754131.6641817,679655.4375,392464.28125,675202.75,707386.875,707346.125,234583.984375,424582.3125,233236.078125,0.0
1772754131.6642313,679639.5,392460.34375,675171.375,707388.75,707348.25,234584.609375,424556.46875,233236.078125,0.0
1772754131.670466,679618.5625,392453.125,675137.5,707390.625,707349.75,234585.765625,424529.28125,233233.84375,0.0
1772754131.6705632,679601.625,392445.875,675101.5,707390.625,707349.9375,234586.3125,424500.96875,233228.21875,0.0
1772754131.6810706,679586.0625,392439.0625,675067.0625,707391.8125,707351.0,234589.265625,424474.75,233226.0625,0.0
1772754131.6858344,679564.9375,392429.25,675029.625,707392.4375,707352.125,234589.609375,424445.4375,233221.515625,0.0
1772754131.6859372,679547.875,392421.90625,674993.75,707391.4375,707351.0,234590.0625,424417.71875,233219.8125,0.0
1772754131.6919029,679528.3125,392411.53125,674958.1875,707392.0625,707352.0,234590.59375,424390.4375,233215.703125,0.0
1772754131.6919765,679514.9375,392407.96875,674925.5,707394.5,707353.875,234590.15625,424365.875,233213.46875,0.0
1772754131.7001393,679495.8125,392396.78125,674889.6875,707393.25,707352.875,234584.609375,424335.625,233209.34375,0.0
1772754131.7001894,679479.3125,392389.1875,674858.5625,707393.9375,707353.875,234582.109375,424305.40625,233204.796875,0.0
1772754131.708856,679468.1875,392385.25,674829.875,707394.1875,707353.6875,234580.046875,424276.53125,233199.25,0.0
1772754131.7089005,679456.75,392379.875,674801.25,707393.75,707353.4375,234581.390625,424248.28125,233197.015625,0.0
1772754131.7112036,679449.0,392379.0,674772.3125,707393.25,707352.375,234583.890625,424221.375,233193.171875,0.0
1772754131.7177358,679425.375,392365.125,674736.4375,707392.9375,707352.8125,234577.453125,424188.375,233184.40625,0.0
1772754131.7177844,679411.4375,392360.65625,674701.8125,707392.875,707352.5625,234576.65625,424163.1875,233182.703125,0.0
1772754131.7238252,679396.5625,392356.0,674668.1875,707395.4375,707355.25,234581.5625,424140.46875,233184.671875,0.0
1772754131.7303941,679387.1875,392357.1875,674634.0625,707397.3125,707357.375,234584.96875,424114.90625,233185.21875,0.0
1772754131.7304678,679374.25,392351.53125,674597.3125,707397.5,707357.125,234584.078125,424084.125,233180.03125,0.0
1772754131.7386472,679358.625,392342.5,674561.75,707397.3125,707357.3125,234580.3125,424053.84375,233175.5625,0.0
1772754131.7472858,679348.875,392336.34375,674528.8125,707399.125,707358.8125,234579.609375,424027.28125,233172.78125,0.0
1772754131.7473276,679336.4375,392331.0625,674498.3125,707398.5,707358.25,234580.40625,424000.71875,233169.65625,0.0
1772754131.7529545,679316.375,392322.65625,674463.375,707398.0625,707357.9375,234577.453125,423967.46875,233163.484375,0.0
1772754131.753003,679306.3125,392319.96875,674432.0625,707399.5,707359.1875,234576.921875,423939.3125,233160.625,0.0
1772754131.7570992,679294.375,392314.875,674402.125,707400.3125,707360.4375,234574.859375,423915.96875,233159.546875,0.0
1772754131.7600508,679281.8125,392308.09375,674371.9375,707399.5625,707359.6875,234574.5,423889.6875,233156.6875,0.0
1772754131.7661371,679272.6875,392305.40625,674343.75,707400.125,707360.0625,234575.9375,423863.65625,233158.75,0.0
1772754131.7689176,679256.875,392297.1875,674309.1875,707400.3125,707360.125,234575.21875,423833.4375,233156.25,0.0
1772754131.7689748,679241.5,392289.5,674277.9375,707400.75,707360.4375,234575.578125,423805.46875,233156.515625,0.0
1772754131.7711089,679231.25,392285.375,674248.8125,707400.375,707360.0625,234573.609375,423779.53125,233155.171875,0.0
1772754131.7846053,679218.3125,392279.5625,674219.3125,707401.4375,707361.125,234574.0625,423753.6875,233153.296875,0.0
1772754131.7876956,679203.9375,392268.84375,674188.1875,707401.75,707361.125,234575.046875,423728.375,233151.765625,0.0
1772754131.787753,679192.125,392259.375,674151.8125,707401.0,707360.875,234574.328125,423698.875,233146.3125,0.0
1772754131.7896419,679188.0,392259.625,674121.375,707400.8125,707360.625,234577.09375,423676.625,233146.59375,0.0
1772754131.7961652,679178.1875,392254.0,674091.5625,707402.6875,707362.125,234575.9375,423650.78125,233145.0625,0.0
1772754131.7985575,679166.1875,392244.625,674063.4375,707403.5,707363.0,234575.671875,423627.96875,233145.515625,0.0
1772754131.8074,679147.625,392229.15625,674027.0625,707403.625,707363.375,234572.453125,423598.125,233140.234375,0.0
1772754131.8107967,679135.25,392222.0,673989.25,707401.8125,707361.3125,234569.234375,423565.125,233132.546875,0.0
1772754131.8108704,679124.5,392217.0625,673957.625,707402.625,707361.6875,234568.875,423537.78125,233127.546875,0.0
1772754131.8162189,679118.8125,392215.09375,673928.0,707403.9375,707363.375,234567.4375,423511.125,233123.078125,0.0
1772754131.8251424,679108.25,392210.0,673893.125,707401.8125,707361.5625,234564.21875,423480.375,233116.71875,0.0
1772754131.825189,679091.875,392201.34375,673861.125,707401.875,707361.75,234565.5625,423452.375,233111.625,0.0
1772754131.8279567,679080.5625,392195.15625,673832.1875,707402.5,707362.625,234565.390625,423425.46875,233107.0625,0.0
1772754131.8280053,679073.125,392193.46875,673802.125,707403.0625,707362.625,234565.828125,423400.1875,233103.3125,0.0
1772754131.8361266,679060.125,392186.21875,673768.875,707402.0,707361.125,234565.921875,423370.59375,233097.328125,0.0
1772754131.8384075,679043.625,392175.21875,673738.1875,707402.5,707362.0,234566.734375,423344.03125,233095.71875,0.0
1772754131.8424163,679026.625,392164.875,673708.6875,707403.0625,707363.25,234566.640625,423319.0,233090.53125,0.0
1772754131.851528,679021.875,392165.21875,673681.5,707403.5,707363.375,234570.578125,423295.21875,233087.84375,0.0
1772754131.8515782,679004.8125,392153.15625,673649.0625,707404.3125,707364.0,234573.25,423268.3125,233084.453125,0.0
1772754131.857184,678988.0,392141.96875,673617.6875,707405.75,707365.5,234574.421875,423241.75,233082.390625,0.0
1772754131.859828,678977.875,392137.59375,673587.75,707407.0625,707366.875,234577.90625,423216.8125,233082.125,0.0
1772754131.8638296,678964.6875,392133.9375,673552.5,707406.1875,707365.3125,234576.296875,423187.75,233078.015625,0.0
1772754131.8754485,678941.75,392121.40625,673513.1875,707406.1875,707365.3125,234573.875,423155.8125,233073.625,0.0
1772754131.8755076,678925.9375,392116.75,673479.4375,707406.1875,707365.9375,234573.171875,423128.75,233069.421875,0.0
1772754131.8774931,678905.75,392106.125,673443.4375,707406.75,707366.3125,234567.890625,423102.375,233062.015625,0.0
1772754131.8817322,678889.375,392097.625,673409.625,707405.8125,707365.3125,234565.921875,423076.34375,233055.578125,0.0
1772754131.8818183,678876.0,392091.625,673374.5625,707404.375,707364.5,234562.609375,423049.625,233050.828125,0.0
1772754131.8901,678856.8125,392079.125,673341.0625,707404.875,707365.125,234559.578125,423024.21875,233047.796875,0.0
1772754131.8930657,678837.625,392064.625,673313.3125,707406.1875,707365.5,234556.625,422998.5625,233048.234375,0.0
1772754131.8931386,678823.0625,392057.46875,673285.0625,707405.5,707364.8125,234554.65625,422971.375,233046.984375,0.0
1772754131.9009352,678809.4375,392050.5,673259.4375,707405.1875,707365.3125,234553.046875,422946.0625,233046.8125,0.0
1772754131.9076953,678795.0,392043.1875,673231.375,707404.6875,707364.375,234547.953125,422917.03125,233041.09375,0.0
1772754131.9077573,678776.1875,392030.46875,673203.75,707405.75,707365.125,234545.984375,422892.0625,233041.625,0.0
1772754131.9134223,678762.6875,392024.5,673172.8125,707403.6875,707363.125,234545.0,422863.5625,233036.34375,0.0
1772754131.9227848,678743.5,392016.34375,673139.0,707404.75,707364.1875,234545.8125,422833.78125,233028.21875,0.0
1772754131.922838,678725.3125,392008.40625,673104.6875,707406.75,707366.25,234546.515625,422805.4375,233023.03125,0.0
1772754131.9266987,678708.625,391996.6875,673071.9375,707406.75,707366.875,234550.8125,422777.8125,233017.75,0.0
1772754131.926747,678695.0,391989.28125,673038.3125,707405.5625,707365.625,234549.46875,422748.65625,233011.21875,0.0
1772754131.937058,678681.9375,391983.90625,673008.0,707407.5625,707366.9375,234550.71875,422725.34375,233010.515625,0.0
1772754131.9444776,678667.0625,391977.375,672975.8125,707407.625,707367.0625,234551.53125,422700.84375,233008.28125,0.0
1772754131.9445236,678645.6875,391964.59375,672942.375,707407.1875,707366.5,234551.265625,422671.78125,233002.546875,0.0
1772754131.9445314,678632.9375,391962.34375,672915.0625,707408.0,707367.6875,234552.875,422648.1875,233002.546875,0.0
1772754131.9495628,678620.8125,391960.84375,672886.0,707408.6875,707368.9375,234552.59375,422621.09375,233000.765625,0.0
1772754131.9496343,678599.25,391947.875,672849.6875,707406.625,707366.6875,234546.515625,422589.15625,232992.453125,0.0
1772754131.954818,678586.375,391943.3125,672821.9375,707408.0,707367.8125,234547.5,422563.875,232991.015625,0.0
1772754131.9617271,678569.875,391935.0,672792.8125,707409.25,707369.0,234548.75,422538.03125,232989.59375,0.0
1772754131.961778,678553.0625,391927.9375,672757.75,707408.6875,707368.4375,234549.296875,422510.84375,232982.890625,0.0
1772754131.9702392,678537.125,391921.84375,672724.875,707409.125,707368.9375,234552.328125,422485.4375,232979.3125,0.0
1772754131.9814312,678521.5,391912.65625,672694.5625,707408.6875,707368.75,234555.46875,422460.875,232978.59375,0.0
1772754131.9814885,678503.125,391902.8125,672664.25,707408.25,707368.125,234555.546875,422435.21875,232976.453125,0.0
1772754131.9845035,678487.9375,391897.34375,672631.875,707409.3125,707369.0,234555.8125,422410.09375,232975.546875,0.0
1772754131.9846044,678470.0625,391888.15625,672596.375,707408.25,707367.6875,234553.5,422381.125,232969.921875,0.0
1772754131.985727,678453.375,391881.0,672565.1875,707409.4375,707368.9375,234554.125,422357.25,232969.828125,0.0
1772754131.9887109,678432.5,391869.5625,672531.1875,707410.0625,707370.0,234553.9375,422333.625,232969.109375,0.0
1772754131.9949546,678413.9375,391860.78125,672500.875,707413.8125,707373.625,234556.171875,422311.46875,232969.203125,0.0
1772754132.0017612,678397.625,391855.875,672469.0625,707414.0625,707373.75,234556.09375,422287.25,232966.34375,0.0
1772754132.0018103,678382.875,391852.84375,672439.5625,707413.0625,707372.9375,234556.09375,422261.40625,232963.65625,0.0
1772754132.0122187,678361.0,391841.5625,672401.75,707410.0625,707369.5625,234548.3125,422228.59375,232954.453125,0.0
1772754132.0194924,678346.4375,391838.53125,672373.4375,707411.8125,707371.3125,234549.203125,422208.03125,232955.96875,0.0
1772754132.0195367,678327.625,391828.25,672342.375,707413.8125,707373.375,234549.375,422181.5625,232953.015625,0.0
1772754132.019545,678306.25,391816.625,672312.8125,707414.125,707373.8125,234548.3125,422155.375,232949.984375,0.0
1772754132.0226452,678288.5625,391809.375,672281.3125,707414.875,707374.25,234547.859375,422128.375,232945.328125,0.0
1772754132.0226903,678268.25,391801.25,672249.3125,707415.875,707375.875,234551.265625,422100.90625,232943.453125,0.0
1772754132.0361283,678251.5625,391794.375,672217.9375,707415.5625,707375.4375,234552.328125,422074.53125,232941.9375,0.0
1772754132.0433652,678227.75,391779.6875,672184.125,707414.0625,707374.0,234551.53125,422047.625,232939.96875,0.0
1772754132.0434716,678211.25,391774.40625,672150.6875,707415.25,707375.0,234552.25,422023.65625,232939.703125,0.0
1772754132.0434923,678194.625,391766.90625,672115.0,707413.6875,707373.5,234552.78125,421997.5625,232934.0625,0.0
1772754132.047645,678169.5,391755.375,672080.4375,707414.25,707374.4375,234551.796875,421969.9375,232925.03125,0.0
1772754132.0476904,678141.5,391744.125,672047.4375,707415.375,707375.625,234550.984375,421940.0625,232918.515625,0.0
1772754132.0558193,678120.5,391736.15625,672016.25,707416.5625,707376.6875,234551.4375,421914.21875,232914.84375,0.0
1772754132.0586443,678097.0625,391724.53125,671983.125,707415.5625,707375.8125,234549.46875,421886.875,232911.09375,0.0
1772754132.061897,678076.0625,391714.15625,671948.8125,707415.9375,707375.875,234547.234375,421855.21875,232902.0625,0.0
1772754132.0696328,678062.8125,391711.21875,671918.125,707416.625,707376.9375,234551.078125,421828.75,232898.578125,0.0
1772754132.0758083,678045.3125,391705.03125,671892.375,707418.1875,707378.5625,234554.5625,421808.375,232900.8125,0.0
1772754132.0788116,678021.5,391695.84375,671863.625,707418.25,707378.625,234554.65625,421784.21875,232897.59375,0.0
1772754132.080927,678000.3125,391690.75,671833.75,707417.375,707377.6875,234555.015625,421758.9375,232893.390625,0.0
1772754132.0852456,677980.5,391685.375,671798.3125,707416.375,707376.75,234557.25,421731.3125,232888.828125,0.0
1772754132.085339,677955.8125,391675.34375,671762.125,707418.1875,707378.625,234556.890625,421703.0625,232883.8125,0.0
1772754132.0936465,677934.4375,391670.0,671730.75,707418.4375,707379.375,234558.40625,421680.15625,232883.546875,0.0
1772754132.0963764,677913.9375,391664.1875,671698.8125,707418.375,707379.0,234561.71875,421657.375,232881.765625,0.0
1772754132.096422,677893.5625,391659.1875,671665.0625,707419.0625,707379.625,234563.78125,421634.21875,232877.296875,0.0
1772754132.1074944,677876.25,391655.6875,671630.875,707420.5,707381.25,234563.15625,421609.1875,232872.5625,0.0
1772754132.1103044,677865.0625,391657.21875,671606.75,707423.4375,707383.6875,234565.828125,421590.03125,232875.234375,0.0
1772754132.1103702,677843.9375,391650.3125,671581.0625,707426.0625,707385.8125,234568.6875,421568.75,232875.953125,0.0
1772754132.116047,677826.625,391648.1875,671553.125,707427.9375,707388.5625,234571.109375,421549.90625,232876.75,0.0
1772754132.1201825,677806.6875,391642.625,671519.9375,707428.8125,707388.75,234569.953125,421527.1875,232874.796875,0.0
1772754132.1202335,677782.8125,391631.46875,671488.75,707429.6875,707389.75,234570.65625,421504.21875,232875.953125,0.0
1772754132.1308296,677751.75,391615.53125,671449.375,707427.9375,707387.875,234562.4375,421470.15625,232866.5625,0.0
1772754132.1337953,677717.25,391596.59375,671404.0625,707423.6875,707383.6875,234550.640625,421428.5625,232848.421875,0.0
1772754132.1338134,677677.8125,391572.0,671359.25,707419.125,707379.8125,234538.203125,421389.0625,232829.640625,0.0
1772754132.1361072,677651.25,391562.4375,671322.6875,707417.5625,707377.6875,234533.375,421358.65625,232820.34375,0.0
1772754132.144758,677634.1875,391562.625,671294.0625,707419.125,707379.1875,234540.4375,421338.0,232822.9375,0.0
1772754132.1472576,677607.3125,391551.0,671263.9375,707420.5625,707380.6875,234544.828125,421314.65625,232822.3125,0.0
1772754132.1560771,677587.5625,391545.0,671236.875,707422.625,707383.0625,234552.78125,421297.59375,232827.5,0.0
1772754132.1659725,677574.5,391545.1875,671207.0625,707421.5,707381.875,234556.0,421273.71875,232827.21875,0.0
1772754132.169388,677555.0625,391537.6875,671177.25,707423.4375,707383.5,234558.765625,421251.1875,232825.4375,0.0
1772754132.16946,677530.5,391527.9375,671145.25,707426.25,707386.8125,234556.890625,421228.125,232822.75,0.0
1772754132.1733181,677506.25,391519.6875,671113.3125,707425.875,707386.6875,234556.890625,421203.71875,232820.15625,0.0
1772754132.1761217,677479.5,391508.0,671078.0,707424.1875,707385.1875,234556.453125,421177.15625,232814.171875,0.0
1772754132.1785383,677456.1875,391500.9375,671043.0,707424.0625,707384.5625,234557.25,421150.15625,232810.328125,0.0
1772754132.1811318,677435.1875,391493.3125,671009.75,707425.6875,707386.0625,234556.359375,421127.71875,232809.34375,0.0
1772754132.1836967,677411.375,391484.03125,670973.9375,707426.3125,707386.875,234552.25,421105.1875,232805.765625,0.0
1772754132.1870272,677389.9375,391478.5625,670940.5625,707425.875,707386.5,234550.453125,421081.9375,232803.890625,0.0
1772754132.2192154,677366.6875,391470.09375,670907.0625,707425.9375,707386.6875,234552.421875,421056.46875,232801.390625,0.0
1772754132.2192645,677344.4375,391462.5625,670875.0625,707424.25,707385.1875,234554.03125,421031.96875,232797.71875,0.0
1772754132.220873,677321.0,391454.0,670841.6875,707424.625,707385.625,234554.921875,421006.65625,232792.796875,0.0
1772754132.223654,677296.5,391445.5,670807.0625,707425.0625,707385.8125,234550.8125,420978.6875,232787.890625,0.0
1772754132.2258253,677279.0,391443.78125,670775.5,707425.6875,707386.5,234548.84375,420953.71875,232786.359375,0.0
1772754132.2282324,677258.0,391436.03125,670743.3125,707425.9375,707387.0,234549.46875,420933.25,232786.640625,0.0
1772754132.2312603,677235.1875,391428.25,670710.8125,707426.125,707387.125,234549.03125,420910.46875,232785.921875,0.0
1772754132.2333477,677214.1875,391422.25,670681.9375,707428.1875,707389.1875,234548.125,420887.84375,232786.015625,0.0
1772754132.2358305,677189.9375,391411.15625,670649.5625,707429.0,707389.9375,234547.421875,420861.8125,232781.09375,0.0
1772754132.2384427,677167.0625,391402.5625,670620.9375,707430.4375,707391.1875,234546.15625,420837.875,232778.59375,0.0
1772754132.240986,677138.6875,391391.75,670585.5625,707429.0,707389.625,234543.21875,420806.3125,232771.609375,0.0
1772754132.2432292,677107.6875,391377.09375,670551.3125,707430.3125,707390.8125,234545.09375,420777.6875,232768.484375,0.0
1772754132.245855,677085.6875,391369.59375,670523.3125,707431.25,707392.0,234547.765625,420755.53125,232765.984375,0.0
1772754132.2487905,677064.875,391366.1875,670497.5,707430.3125,707391.4375,234549.65625,420735.5,232765.265625,0.0
1772754132.2488031,677040.875,391360.75,670466.875,707430.125,707391.5,234548.125,420712.0625,232764.1875,0.0
1772754132.2508438,677015.25,391353.40625,670435.4375,707432.3125,707392.9375,234546.515625,420689.1875,232764.734375,0.0
1772754132.2580023,676992.4375,391345.09375,670405.375,707433.5625,707393.75,234543.75,420665.125,232764.46875,0.0
1772754132.2580469,676965.1875,391332.21875,670372.9375,707430.4375,707391.25,234539.8125,420637.59375,232760.4375,0.0
1772754132.2633104,676937.25,391322.125,670340.5625,707430.6875,707391.875,234540.0,420610.125,232756.859375,0.0
1772754132.2726111,676915.3125,391318.09375,670310.625,707431.25,707392.125,234542.046875,420586.09375,232756.140625,0.0
1772754132.2726624,676889.0625,391311.03125,670276.4375,707432.0,707392.6875,234539.8125,420558.71875,232750.609375,0.0
1772754132.2800477,676861.0,391302.09375,670241.875,707429.5,707390.1875,234542.046875,420532.96875,232744.96875,0.0
1772754132.2826543,676838.0625,391297.96875,670208.5,707429.8125,707390.5625,234545.265625,420509.75,232741.03125,0.0
1772754132.2845383,676816.125,391292.15625,670175.25,707431.25,707392.25,234546.875,420488.53125,232739.421875,0.0
1772754132.2891552,676781.375,391275.0,670132.125,707430.0,707391.4375,234544.734375,420456.90625,232728.78125,0.0
1772754132.289204,676752.625,391266.3125,670094.0625,707429.6875,707391.375,234544.203125,420429.28125,232721.640625,0.0
1772754132.2970898,676723.9375,391258.0,670057.125,707431.125,707392.125,234545.625,420404.875,232717.171875,0.0
1772754132.3004224,676694.0625,391245.21875,670019.9375,707431.875,707393.0625,234544.109375,420377.25,232711.890625,0.0
1772754132.3004708,676669.6875,391239.21875,669988.5,707434.0625,707395.3125,234546.875,420352.8125,232709.296875,0.0
1772754132.3036284,676647.5,391235.03125,669958.375,707433.75,707395.4375,234549.03125,420327.96875,232706.96875,0.0
1772754132.3175123,676622.125,391229.84375,669922.75,707434.1875,707395.5625,234550.015625,420302.125,232702.765625,0.0
1772754132.321696,676585.375,391216.15625,669877.0,707434.6875,707396.25,234548.21875,420273.6875,232695.4375,0.0
1772754132.3217432,676553.4375,391209.28125,669834.5,707434.875,707396.875,234548.84375,420244.46875,232688.5625,0.0
1772754132.3245437,676530.9375,391207.21875,669798.9375,707435.1875,707397.1875,234551.4375,420220.25,232683.640625,0.0
1772754132.3246727,676500.4375,391196.5,669758.625,707434.0,707395.75,234548.578125,420192.15625,232676.9375,0.0
1772754132.3374145,676470.375,391188.09375,669722.375,707435.8125,707397.25,234547.859375,420166.6875,232672.109375,0.0
1772754132.344611,676442.75,391180.9375,669688.0625,707437.125,707398.75,234547.421875,420142.90625,232670.578125,0.0
1772754132.3446877,676410.9375,391171.46875,669652.8125,707437.1875,707399.5,234543.578125,420115.625,232668.53125,0.0
1772754132.3447196,676382.25,391165.90625,669613.3125,707434.875,707397.1875,234538.921875,420083.90625,232660.296875,0.0
1772754132.3479471,676357.1875,391163.875,669580.75,707434.5625,707397.0625,234539.546875,420058.6875,232657.0,0.0
1772754132.3479967,676326.8125,391155.8125,669548.4375,707435.0625,707398.125,234538.5625,420032.5625,232652.34375,0.0
1772754132.358461,676300.1875,391151.96875,669519.375,707437.125,707399.875,234538.203125,420007.625,232650.109375,0.0
1772754132.362914,676269.875,391145.625,669487.625,707439.375,707401.5625,234537.3125,419984.75,232649.578125,0.0
1772754132.362965,676242.6875,391142.3125,669454.0625,707439.75,707402.1875,234536.953125,419960.875,232647.78125,0.0
1772754132.37684,676220.125,391141.96875,669421.25,707439.25,707402.0,234536.78125,419936.09375,232642.59375,0.0
1772754132.3768895,676193.75,391134.71875,669388.8125,707437.9375,707400.75,234533.828125,419911.0625,232639.734375,0.0
1772754132.3790596,676168.0,391126.40625,669358.625,707437.6875,707400.75,234531.859375,419887.90625,232640.0,0.0
1772754132.3791091,676140.8125,391119.59375,669327.75,707436.4375,707399.3125,234528.734375,419861.96875,232637.328125,0.0
1772754132.3876874,676120.25,391119.875,669299.4375,707437.0625,707400.1875,234529.171875,419838.75,232639.921875,0.0
1772754132.3877404,676094.8125,391114.34375,669269.1875,707438.125,707401.25,234526.046875,419813.96875,232640.90625,0.0
1772754132.401581,676069.9375,391107.8125,669239.8125,707437.1875,707400.625,234525.421875,419793.40625,232642.953125,0.0
1772754132.4016488,676052.3125,391108.25,669217.25,707437.75,707401.625,234526.9375,419779.46875,232651.625,0.0
1772754132.4041812,676036.9375,391108.6875,669190.4375,707436.75,707400.375,234522.109375,419759.15625,232653.859375,0.0
1772754132.4042296,676015.25,391103.78125,669162.375,707436.25,707399.5,234520.765625,419737.15625,232655.390625,0.0
1772754132.4061365,675999.125,391104.9375,669135.375,707434.5625,707397.6875,234517.828125,419716.6875,232658.6875,0.0
1772754132.4181125,675981.0625,391107.8125,669109.0,707434.25,707397.5,234516.65625,419700.34375,232665.21875,0.0
1772754132.4181845,675964.875,391107.34375,669087.5,707435.0,707398.5,234518.8125,419686.375,232672.90625,0.0
1772754132.419882,675949.9375,391107.1875,669072.5,707435.6875,707399.5,234524.609375,419675.3125,232685.0625,0.0
1772754132.423316,675944.4375,391117.8125,669056.9375,707437.0625,707400.9375,234530.515625,419665.46875,232699.109375,0.0
1772754132.4276755,675938.9375,391127.375,669036.9375,707437.3125,707401.25,234533.640625,419652.15625,232708.671875,0.0
1772754132.4277196,675929.3125,391131.6875,669013.75,707438.375,707402.25,234533.375,419639.71875,232716.625,0.0
1772754132.4386365,675908.125,391126.5,668987.0,707440.1875,707403.5,234531.59375,419624.6875,232719.484375,0.0
1772754132.4418564,675896.75,391128.8125,668965.1875,707440.0,707404.0625,234532.484375,419609.21875,232724.40625,0.0
1772754132.4419324,675878.3125,391125.0625,668938.0625,707439.75,707404.3125,234529.09375,419589.125,232728.15625,0.0
1772754132.4432037,675870.8125,391129.15625,668918.5625,707439.5625,707404.125,234530.078125,419576.0625,232738.71875,0.0
1772754132.4523687,675856.8125,391127.46875,668896.875,707438.9375,707403.4375,234528.8125,419558.53125,232746.21875,0.0
1772754132.4549415,675838.9375,391121.84375,668874.0,707440.625,707404.9375,234530.875,419543.25,232752.75,0.0
1772754132.4582841,675821.9375,391117.71875,668849.8125,707443.3125,707407.375,234527.125,419526.4375,232757.21875,0.0
1772754132.4679697,675816.5,391123.625,668827.625,707443.375,707407.5625,234526.40625,419512.40625,232764.640625,0.0
1772754132.4680188,675798.4375,391116.46875,668797.3125,707443.5625,707407.8125,234524.4375,419491.9375,232767.328125,0.0
