timestamps,Fz,C3,Cz,C4,Pz,PO7,Oz,PO8,stim
1762982317.1104789,80212.6328125,79936.90625,80496.5,80289.34375,80385.90625,80478.0,80575.5390625,80743.0859375,0.0
1762982317.116826,80125.015625,79849.2890625,80408.5234375,80201.4609375,80297.84375,80390.6484375,80487.6484375,80655.0234375,0.0
1762982317.1168613,80053.9375,79778.296875,80337.5390625,80130.46875,80227.1171875,80319.7421875,80416.5703125,80584.03125,0.0
1762982317.118742,80053.7578125,79777.9375,80337.625,80130.46875,80227.03125,80319.4765625,80416.484375,80584.03125,0.0
1762982317.1301627,80066.6328125,79790.90625,80350.4140625,80143.4375,80239.9921875,80332.3515625,80429.984375,80596.90625,0.0
1762982317.1331644,80019.7890625,79744.140625,80303.65625,80096.5,80193.0546875,80285.5,80382.6875,80550.328125,0.0
1762982317.1332004,79977.3203125,79701.765625,80261.1875,80053.9375,80150.5,80243.125,80340.484375,80507.765625,0.0
1762982317.1388624,79978.2109375,79702.65625,80262.078125,80054.8359375,80151.484375,80243.75,80340.84375,80508.3046875,0.0
1762982317.153761,79990.90625,79715.625,80275.0390625,80067.6171875,80164.8046875,80256.265625,80353.5390625,80521.265625,0.0
1762982317.1538146,79925.015625,79649.4609375,80208.703125,80001.7265625,80098.640625,80190.4609375,80287.734375,80455.46875,0.0
1762982317.1538253,79838.0234375,79562.109375,80121.4375,79914.734375,80011.2890625,80103.46875,80200.65625,80368.203125,0.0
1762982317.1562767,79786.8828125,79511.2421875,80070.5703125,79863.3203125,79960.0625,80052.328125,80149.421875,80317.0625,0.0
1762982317.1587777,79770.515625,79495.4140625,80054.5625,79847.3203125,79943.96875,80036.0546875,80133.3359375,80300.7890625,0.0
1762982317.161316,79684.953125,79409.671875,79968.5546875,79761.578125,79858.2265625,79950.046875,80047.859375,80214.875,0.0
1762982317.164938,79567.4765625,79291.7421875,79850.8984375,79643.921875,79740.5703125,79832.5703125,79929.9296875,80096.9453125,0.0
1762982317.1768122,79488.0859375,79212.171875,79771.4140625,79564.1640625,79661.171875,79753.3515625,79849.9140625,80017.1953125,0.0
1762982317.1768472,79457.6875,79181.7734375,79741.015625,79534.0390625,79630.421875,79723.1328125,79820.140625,79986.8828125,0.0
1762982317.1793652,79376.7734375,79101.21875,79660.0078125,79453.03125,79549.6796875,79642.21875,79738.9609375,79906.0625,0.0
1762982317.1794028,79258.578125,78983.203125,79542.171875,79334.9296875,79431.484375,79524.203125,79620.765625,79788.0390625,0.0
1762982317.1875083,79172.2109375,78897.1875,79456.34375,79248.6484375,79345.390625,79437.921875,79535.203125,79702.03125,0.0
1762982317.18986,79146.0078125,78870.640625,79429.875,79222.453125,79319.28125,79411.8203125,79508.828125,79675.4765625,0.0
1762982317.1975343,79081.4609375,78806.0,79365.234375,79158.078125,79255.0859375,79347.4453125,79443.828125,79610.75,0.0
1762982317.1999905,78958.703125,78683.0625,79242.390625,79034.7890625,79131.8828125,79224.2421875,79320.53125,79487.6328125,0.0
1762982317.2025075,78856.421875,78580.78125,79140.2890625,78932.328125,79029.515625,79121.9609375,79218.34375,79385.0859375,0.0
1762982317.2118194,78811.453125,78536.078125,79094.9609375,78887.7109375,78984.6328125,79077.1640625,79173.28125,79340.2890625,0.0
1762982317.2118556,78754.3203125,78479.03125,79038.2734375,78830.5859375,78927.6796875,79020.484375,79116.59375,79283.609375,0.0
1762982317.213768,78634.6015625,78359.3203125,78918.6484375,78710.78125,78807.9609375,78900.859375,78997.0625,79163.984375,0.0
1762982317.2174878,78527.046875,78251.671875,78811.2734375,78603.3125,78700.3203125,78792.9453125,78889.6796875,79056.15625,0.0
1762982317.226926,78482.4296875,78206.8828125,78766.03125,78558.25,78655.4375,78747.8828125,78844.53125,79011.09375,0.0
1762982317.2269812,78450.6953125,78175.3203125,78734.203125,78526.78125,78623.515625,78716.234375,78812.7890625,78979.0859375,0.0
1762982317.2287376,78352.34375,78077.1484375,78636.125,78428.25,78525.5234375,78618.328125,78714.4453125,78881.1875,0.0
1762982317.2349956,78256.6796875,77981.484375,78540.546875,78332.671875,78430.1328125,78522.6640625,78618.953125,78785.703125,0.0
1762982317.24438,78214.8359375,77939.4609375,78498.4375,78290.3828125,78388.015625,78480.46875,78576.7578125,78743.3203125,0.0
1762982317.244416,78197.578125,77922.296875,78480.9140625,78272.953125,78370.671875,78463.390625,78559.3203125,78725.796875,0.0
1762982317.2468257,78101.203125,77825.9140625,78384.7109375,78177.015625,78274.5625,78366.921875,78463.03125,78629.328125,0.0
1762982317.2468612,77980.234375,77704.859375,78263.7421875,78056.2265625,78153.4140625,78246.1328125,78342.0625,78508.453125,0.0
1762982317.275088,77893.5078125,77618.3125,78176.484375,77969.328125,78066.6875,78158.9609375,78255.3359375,78421.453125,0.0
1762982317.2774968,77837.8984375,77563.1484375,78121.2265625,77913.984375,78011.078125,78103.6171875,78200.171875,78366.0234375,0.0
1762982317.2800648,77707.359375,77432.5234375,77990.875,77783.359375,77880.7265625,77973.4375,78069.5546875,78235.21875,0.0
1762982317.2825003,77536.328125,77261.3984375,77819.4765625,77612.1484375,77709.6875,77802.40625,77898.4296875,78064.0078125,0.0
1762982317.285008,77399.0859375,77124.34375,77682.2421875,77474.7265625,77572.625,77665.0703125,77761.09375,77926.5859375,0.0
1762982317.2875457,77313.4375,77038.8671875,77596.9453125,77389.1640625,77486.796875,77579.8671875,77675.359375,77841.3828125,0.0
1762982317.2900317,77177.4453125,76902.609375,77461.046875,77253.265625,77350.71875,77443.5234375,77539.28125,77705.3046875,0.0
1762982317.2925062,76999.796875,76724.6875,77283.3984375,77075.6171875,77173.0703125,77265.421875,77361.8984375,77527.65625,0.0
1762982317.2948787,76860.3203125,76585.21875,77143.5625,76936.140625,77033.7734375,77126.125,77222.421875,77387.5546875,0.0
1762982317.3023593,76793.7109375,76518.609375,77077.046875,76869.6171875,76967.34375,77059.6953125,77155.8125,77321.0390625,0.0
1762982317.3050127,76698.671875,76423.65625,76982.0078125,76774.7578125,76872.2109375,76964.8359375,77060.59375,77226.0859375,0.0
1762982317.3081727,76543.109375,76268.0,76826.4375,76618.921875,76716.46875,76809.4453125,76904.6640625,77070.25,0.0
1762982317.3082078,76411.0546875,76135.765625,76694.0234375,76486.421875,76584.140625,76676.765625,76772.1640625,76937.5703125,0.0
1762982317.309997,76340.6015625,76065.4921875,76623.484375,76415.96875,76514.140625,76606.671875,76702.0703125,76867.296875,0.0
1762982317.313154,76254.5,75979.3046875,76537.203125,76329.9609375,76428.0390625,76520.578125,76616.2421875,76781.015625,0.0
1762982317.3131838,76089.2734375,75814.078125,76372.25,76164.46875,76262.1875,76355.4375,76450.9296875,76615.703125,0.0
1762982317.316252,75927.8984375,75653.234375,76211.2265625,76003.359375,76101.34375,76194.6875,76289.546875,76454.1484375,0.0
1762982317.330566,75818.5546875,75543.7109375,76101.2578125,75894.0078125,75991.8203125,76084.625,76179.84375,76344.53125,0.0
1762982317.3306015,75708.3125,75433.65625,75991.375,75783.59375,75881.40625,75974.296875,76069.78125,76234.3828125,0.0
1762982317.3362355,75511.2578125,75236.9609375,75794.59375,75586.453125,75684.6171875,75777.6953125,75872.640625,76037.421875,0.0
1762982317.3487873,75300.8828125,75026.8515625,75584.21875,75376.4375,75474.515625,75567.5859375,75662.265625,75827.2265625,0.0
1762982317.348842,75144.6875,74870.65625,75428.2890625,75220.2421875,75318.5859375,75411.65625,75506.1640625,75670.5859375,0.0
1762982317.348856,75021.21875,74747.1875,75304.375,75096.3203125,75195.203125,75288.0078125,75382.421875,75547.0234375,0.0
1762982317.3512516,74819.7890625,74545.578125,75102.671875,74894.6171875,74993.328125,75086.578125,75180.453125,75345.3203125,0.0
1762982317.353766,74604.671875,74330.375,74887.6484375,74679.6875,74778.3046875,74871.28125,74965.7890625,75129.9375,0.0
1762982317.356263,74451.7890625,74177.125,74734.7578125,74526.53125,74625.1484375,74718.1328125,74812.546875,74976.609375,0.0
1762982317.3587856,74358.8046875,74084.0546875,74641.5078125,74433.4609375,74531.8984375,74625.4140625,74719.5625,74883.53125,0.0
1762982317.3612647,74209.8515625,73935.015625,74492.2890625,74284.328125,74382.8515625,74476.1953125,74570.4296875,74734.3125,0.0
1762982317.3650265,74043.109375,73768.8984375,74325.9921875,74117.40625,74216.5546875,74309.8046875,74404.21875,74567.65625,0.0
1762982317.379319,73932.6875,73658.2109375,74215.6640625,74006.8046875,74106.140625,74199.3046875,74293.5390625,74456.8828125,0.0
1762982317.3793547,73895.8515625,73621.1953125,74178.6484375,73969.96875,74069.3046875,74162.46875,74256.7890625,74420.2265625,0.0
1762982317.381755,73819.140625,73545.203125,74102.203125,73893.6171875,73993.0390625,74086.203125,74180.171875,74343.78125,0.0
1762982317.3818185,73698.265625,73424.140625,73980.96875,73772.3828125,73872.0703125,73965.1484375,74058.9296875,74222.3671875,0.0
1762982317.3837616,73619.140625,73344.8359375,73901.6640625,73693.171875,73792.4140625,73885.75,73979.71875,74142.8828125,0.0
1762982317.3926115,73612.1640625,73337.5078125,73894.2421875,73686.015625,73785.171875,73878.78125,73972.296875,74135.734375,0.0
1762982317.3958864,73570.859375,73296.0234375,73852.8515625,73644.796875,73743.953125,73837.2890625,73930.8125,74094.3359375,0.0
1762982317.3959413,73461.0703125,73186.5859375,73743.5078125,73535.1875,73634.25,73727.6796875,73821.203125,73984.8125,0.0
1762982317.401221,73375.328125,73101.0234375,73658.03125,73449.8046875,73548.328125,73641.7578125,73735.640625,73898.890625,0.0
1762982317.4105651,73355.921875,73082.1640625,73638.453125,73430.3125,73529.2890625,73622.71875,73716.5,73879.9375,0.0
1762982317.4106011,73320.25,73046.0390625,73602.78125,73394.7265625,73493.7890625,73587.21875,73680.5625,73844.265625,0.0
1762982317.4124699,73195.9765625,72921.5,73478.3203125,73270.2734375,73369.6015625,73462.765625,73556.2890625,73719.546875,0.0
1762982317.4185498,73071.4296875,72797.0390625,73353.3359375,73145.4609375,73245.1484375,73338.1328125,73431.7421875,73594.5546875,0.0
1762982317.4233117,73003.21875,72729.1796875,73285.3828125,73077.3359375,73176.75,73270.0078125,73363.5234375,73526.421875,0.0
1762982317.4233632,72935.0,72660.6953125,73217.34375,73009.296875,73108.4453125,73201.7890625,73295.484375,73458.3828125,0.0
1762982317.4262533,72759.671875,72485.015625,73041.75,72834.0546875,72932.671875,73026.1015625,73119.625,73282.609375,0.0
1762982317.4351175,72563.8671875,72289.4765625,72845.765625,72637.8984375,72737.140625,72830.484375,72924.0,73086.5390625,0.0
1762982317.439453,72451.75,72177.6328125,72733.7421875,72525.515625,72625.109375,72718.546875,72811.8828125,72974.3359375,0.0
1762982317.43951,72404.8125,72130.9609375,72686.8046875,72479.0234375,72578.4453125,72672.0546875,72765.2109375,72927.84375,0.0
1762982317.4412425,72277.5859375,72003.734375,72560.0234375,72351.53125,72451.3046875,72544.9140625,72638.1640625,72800.4375,0.0
1762982317.4551046,72119.609375,71846.1953125,72402.3125,72194.078125,72293.953125,72387.109375,72480.2734375,72642.3671875,0.0
1762982317.4581754,72015.1796875,71741.859375,72297.5234375,72089.5625,72189.25,72282.5078125,72375.4921875,72538.2109375,0.0
1762982317.4582107,71976.8203125,71703.328125,72259.078125,72050.765625,72150.6328125,72244.0625,72336.7734375,72499.5859375,0.0
1762982317.4599977,71863.2734375,71589.78125,72145.265625,71937.3046875,72037.0859375,72130.78125,72223.40625,72385.7734375,0.0
1762982317.462509,71703.1484375,71429.3828125,71984.78125,71777.0,71876.7734375,71970.3828125,72062.921875,72225.28125,0.0
1762982317.4712293,71587.09375,71313.3359375,71869.0859375,71661.3046875,71760.6328125,71854.421875,71946.875,72108.96875,0.0
1762982317.4755547,71542.0390625,71268.2734375,71824.1171875,71616.421875,71715.7578125,71809.2734375,71902.1640625,72064.0859375,0.0
1762982317.47559,71435.640625,71161.96875,71717.6328125,71510.1171875,71609.453125,71703.1484375,71795.6875,71957.9609375,0.0
1762982317.4812546,71251.375,70978.328125,71533.5390625,71325.671875,71425.1796875,71518.8828125,71611.328125,71773.5078125,0.0
1762982317.4850295,71096.34375,70823.5625,71378.78125,71170.546875,71270.328125,71364.0234375,71456.5625,71618.4765625,0.0
1762982317.4943097,71020.171875,70746.7578125,71302.3359375,71093.8359375,71193.703125,71287.2265625,71380.296875,71541.9453125,0.0
1762982317.494341,70917.9765625,70644.75,71199.7890625,70991.5546875,71091.78125,71185.125,71277.8359375,71439.484375,0.0
1762982317.49625,70751.6796875,70478.453125,71033.4921875,70825.171875,70925.578125,71019.1875,71111.2734375,71273.0078125,0.0
1762982317.5047808,70622.0390625,70349.171875,70904.03125,70695.53125,70796.2890625,70889.546875,70981.7265625,71143.640625,0.0
1762982317.5144773,70593.7890625,70320.828125,70875.8671875,70667.28125,70767.953125,70861.46875,70953.46875,71115.3828125,0.0
1762982317.5145338,70622.0390625,70349.171875,70904.03125,70695.7109375,70795.9375,70889.8125,70981.8984375,71143.3671875,0.0
1762982317.5162392,70610.4140625,70337.3671875,70892.2265625,70684.0859375,70784.4921875,70877.7421875,70970.1015625,71131.65625,0.0
1762982317.518767,70620.609375,70347.2890625,70902.328125,70694.0078125,70794.4140625,70888.0234375,70980.203125,71141.9375,0.0
1762982317.5212636,70687.484375,70414.796875,70969.1171875,70761.15625,70861.2890625,70955.171875,71047.6171875,71209.0859375,0.0
1762982317.533325,70760.3515625,70487.125,71041.8046875,70833.7578125,70934.25,71027.765625,71120.2109375,71281.5078125,0.0
1762982317.533378,70682.8359375,70409.4296875,70964.46875,70756.4140625,70856.5546875,70950.1640625,71042.609375,71204.078125,0.0
1762982317.535597,70563.03125,70289.890625,70844.5703125,70636.7890625,70737.015625,70830.625,70923.0703125,71084.359375,0.0
1762982317.5356357,70519.6640625,70246.3515625,70801.4765625,70593.515625,70693.5625,70787.53125,70879.7109375,71041.0859375,0.0
1762982317.5374918,70554.984375,70281.6640625,70836.9765625,70628.65625,70728.96875,70822.6640625,70914.84375,71076.40625,0.0
1762982317.5463023,70582.875,70309.7421875,70864.78125,70656.3671875,70756.6875,70850.4765625,70942.4765625,71103.9453125,0.0
1762982317.5485668,70681.046875,70408.0,70963.3046875,70755.078125,70854.9453125,70949.265625,71041.359375,71202.3828125,0.0
1762982317.552464,70913.328125,70640.1015625,71195.140625,70987.0,71086.953125,71181.1875,71273.4609375,71434.4765625,0.0
1762982317.558738,71282.3125,71009.078125,71564.5703125,71356.515625,71456.1171875,71549.8125,71642.171875,71804.0859375,0.0
1762982317.5632825,71679.1875,71405.515625,71961.0859375,71753.3046875,71852.6328125,71946.15625,72039.140625,72201.59375,0.0
1762982317.563342,72138.828125,71864.796875,72420.8203125,72212.9453125,72312.3671875,72405.6171875,72498.8671875,72661.59375,0.0
1762982317.573741,72764.765625,72491.0,73047.5625,72839.5078125,72938.75,73032.0,73125.4375,73288.515625,0.0
1762982317.576786,73596.5234375,73322.484375,73879.2265625,73671.4453125,73770.234375,73863.84375,73957.2734375,74120.984375,0.0
1762982317.57683,74515.984375,74241.4140625,74798.6875,74591.2578125,74689.1640625,74782.59375,74876.46875,75040.890625,0.0
1762982317.5785851,75508.9375,75234.2734375,75791.7265625,75584.75,75682.296875,75775.3671875,75869.78125,76034.828125,0.0
1762982317.5847757,76690.09375,76415.25,76973.328125,76766.0859375,76863.453125,76956.2578125,77051.7421875,77217.3203125,0.0
1762982317.5886717,78084.5703125,77809.6484375,78368.4375,78161.1953125,78258.2890625,78350.5546875,78446.9375,78613.6796875,0.0
1762982317.5976632,79569.53125,79294.4296875,79853.4921875,79646.3359375,79743.1640625,79835.3359375,79932.2578125,80099.625,0.0
1762982317.6003509,81066.921875,80791.28125,81351.234375,81144.6171875,81240.4609375,81332.8125,81430.1796875,81598.53125,0.0
1762982317.6003845,82638.515625,82362.9609375,82923.1875,82717.375,82812.4140625,82904.59375,83002.578125,83172.0078125,0.0
1762982317.6063473,84280.1171875,84004.7421875,84565.1484375,84359.6015625,84454.375,84546.4609375,84645.078125,84814.953125,0.0
1762982317.6157098,85892.75,85617.5546875,86178.3203125,85973.21875,86067.453125,86159.453125,86258.9609375,86428.8359375,0.0
1762982317.615772,87398.71875,87124.2421875,87685.1796875,87480.53125,87574.140625,87665.8671875,87766.2734375,87936.953125,0.0
1762982317.617351,88892.359375,88617.7890625,89179.0859375,88975.328125,89067.953125,89159.5,89260.7109375,89432.1015625,0.0
1762982317.6202805,90445.984375,90171.9453125,90733.6953125,90530.46875,90622.109375,90713.3984375,90815.765625,90987.515625,0.0
1762982317.6263843,92026.515625,91752.75,92314.9453125,92112.078125,92203.3671875,92294.6484375,92397.375,92569.484375,0.0
1762982317.6307015,93542.4140625,93268.9140625,93831.1953125,93628.78125,93719.6171875,93810.8125,93913.6328125,94086.71875,0.0
1762982317.6307547,95093.53125,94820.0390625,95382.8515625,95180.703125,95271.1875,95362.0234375,95465.734375,95639.453125,0.0
1762982317.6388657,96759.7265625,96486.4921875,97049.8515625,96848.6796875,96938.265625,97028.8359375,97133.7109375,97307.7890625,0.0
1762982317.64302,98539.8125,98266.859375,98830.5703125,98629.671875,98719.1640625,98809.109375,98915.0546875,99089.3125,0.0
1762982317.6430752,100372.8359375,100100.234375,100664.125,100463.765625,100552.9921875,100642.84375,100749.0625,100924.296875,0.0
1762982317.648868,102314.4921875,102042.3359375,102606.9375,102407.46875,102495.4453125,102585.390625,102692.3203125,102868.546875,0.0
1762982317.6524167,104254.265625,103982.015625,104547.1640625,104348.3203125,104435.3125,104525.078125,104633.171875,104809.8359375,0.0
1762982317.6600008,105551.5546875,105279.671875,105845.4375,105646.953125,105733.4140625,105822.8203125,105931.71875,106108.7421875,0.0
1762982317.664192,106294.7109375,106022.9140625,106588.765625,106390.640625,106476.828125,106566.6875,106675.4921875,106852.609375,0.0
1762982317.6642284,106942.1015625,106670.578125,107236.34375,107038.3984375,107124.671875,107214.2578125,107323.515625,107501.078125,0.0
1762982317.6726174,107557.7578125,107286.4140625,107852.1796875,107654.6796875,107740.8671875,107830.09375,107939.53125,108117.2734375,0.0
1762982317.6756916,108245.75,107974.484375,108540.7890625,108343.46875,108429.3046875,108518.2578125,108628.234375,108805.8828125,0.0
1762982317.6757271,108887.2421875,108616.1640625,109182.1953125,108985.140625,109070.703125,109159.9375,109269.9921875,109448.0078125,0.0
1762982317.67751,109358.953125,109088.2265625,109654.625,109457.03125,109542.59375,109631.5546875,109742.15625,109920.4296875,0.0
1762982317.6860623,109757.796875,109486.71875,110053.109375,109856.0546875,109941.3515625,110030.3984375,110141.0859375,110319.546875,0.0
1762982317.690704,110132.0546875,109861.421875,110427.90625,110230.5859375,110316.0546875,110404.9296875,110515.609375,110694.4296875,0.0
1762982317.6907597,110436.1328125,110165.5859375,110732.0703125,110534.921875,110620.3046875,110709.0859375,110819.7734375,110998.4140625,0.0
1762982317.6963108,110723.125,110452.3125,111019.15625,110822.0078125,110907.0390625,110996.0,111107.0390625,111285.5859375,0.0
1762982317.7051406,111141.4609375,110870.734375,111437.578125,111240.8828125,111325.546875,111414.328125,111525.734375,111704.4609375,0.0
1762982317.7093291,111754.6171875,111483.890625,112050.8203125,111854.484375,111938.8828125,112027.3984375,112139.421875,112318.1484375,0.0
1762982317.709364,112557.3984375,112286.40625,112853.78125,112657.359375,112741.6640625,112830.1796875,112942.65625,113121.5546875,0.0
1762982317.7176294,113556.5234375,113285.7109375,113853.53125,113657.28125,113741.6875,113829.75,113942.4921875,114121.9296875,0.0
1762982317.7205875,114943.9375,114673.3046875,115241.0390625,115045.6875,115129.4609375,115217.4375,115330.625,115510.515625,0.0
1762982317.7206237,116805.5703125,116534.9375,117103.7421875,116908.8359375,116991.625,117079.6953125,117193.8671875,117374.3828125,0.0
1762982317.7225187,118513.3359375,118243.1484375,118812.046875,118617.671875,118700.015625,118787.546875,118902.703125,119083.84375,0.0
1762982317.7313225,119479.9140625,119209.90625,119778.625,119584.7890625,119666.4140625,119754.3046875,119870.0,120051.5859375,0.0
1762982317.7382767,120109.3359375,119839.421875,120408.3203125,120214.6640625,120296.203125,120384.0859375,120499.6875,120681.8984375,0.0
1762982317.7383316,120580.875,120311.21875,120880.296875,120686.8203125,120768.09375,120856.0703125,120971.7578125,121154.1484375,0.0
1762982317.744162,120921.2421875,120651.6796875,121220.7578125,121027.3671875,121108.4609375,121196.2578125,121312.21875,121494.5234375,0.0
1762982317.744234,121175.7890625,120906.046875,121475.5703125,121281.734375,121363.1796875,121450.8046875,121566.8515625,121749.15625,0.0
1762982317.7500005,121460.4609375,121190.984375,121760.5078125,121566.5859375,121648.125,121735.296875,121851.96875,122034.1796875,0.0
1762982317.762942,121753.3515625,121484.328125,122053.765625,121859.9296875,121941.46875,122028.90625,122145.2265625,122327.8828125,0.0
1762982317.7629728,122035.4375,121766.0546875,122335.3046875,122142.0078125,122223.1875,122310.8046875,122427.125,122609.875,0.0
1762982317.7653058,122187.0703125,121917.328125,122486.671875,122293.640625,122375.0,122462.3515625,122579.03125,122761.7734375,0.0
1762982317.7653255,122202.359375,121932.8828125,122502.671875,122309.0234375,122390.5625,122477.90625,122594.5,122777.515625,0.0
1762982317.7672267,122167.7578125,121898.734375,122468.4296875,122274.421875,122355.9609375,122443.484375,122560.078125,122742.640625,0.0
1762982317.7709675,122086.84375,121817.1953125,122387.0703125,122193.0625,122274.6875,122362.21875,122478.4453125,122661.1953125,0.0
1762982317.7797196,121877.5390625,121607.7109375,122177.59375,121983.84375,122065.296875,122152.9140625,122269.0546875,122451.7109375,0.0
1762982317.7840438,121531.71875,121262.6015625,121831.5,121637.84375,121719.734375,121807.1796875,121923.2265625,122105.7109375,0.0
1762982317.7840576,121133.5859375,120864.0234375,121433.1015625,121239.0,121321.34375,121408.78125,121524.921875,121706.6875,0.0
1762982317.7947292,120757.8046875,120487.890625,121057.3203125,120863.3984375,120945.828125,121033.0,121148.7890625,121330.546875,0.0
1762982317.7990599,120367.28125,120097.5390625,120666.7890625,120472.9609375,120555.03125,120642.4765625,120758.1640625,120940.0234375,0.0
1762982317.7990758,119920.8671875,119651.21875,120220.3828125,120026.3671875,120108.4453125,120195.796875,120311.578125,120493.25,0.0
1762982317.805302,119488.9453125,119219.296875,119788.1875,119594.0,119676.5234375,119763.875,119879.203125,120060.703125,0.0
1762982317.8053172,119126.0390625,118856.2109375,119424.84375,119230.734375,119313.171875,119400.7890625,119515.9453125,119697.6171875,0.0
1762982317.8116736,118781.46875,118511.28125,119080.0,118885.625,118968.2421875,119056.21875,119171.015625,119352.6015625,0.0
1762982317.8116891,118345.4296875,118075.1484375,118643.6015625,118449.140625,118531.75,118619.640625,118734.4375,118915.7578125,0.0
1762982317.8218913,117888.0234375,117617.65625,118186.4609375,117992.0,118074.6171875,118162.59375,118277.03125,118458.4375,0.0
1762982317.8371725,117468.6171875,117198.609375,117766.96875,117572.328125,117655.03125,117743.453125,117857.359375,118038.5859375,0.0
1762982317.8372009,117042.7734375,116772.578125,117341.1171875,117146.390625,117229.1796875,117317.515625,117431.421875,117612.46875,0.0
1762982317.8372097,116477.8984375,116207.6171875,116776.0703125,116581.0703125,116664.1328125,116751.9296875,116866.015625,117046.7890625,0.0
1762982317.8409927,115762.1953125,115491.9140625,116059.7421875,115864.4765625,115947.984375,116035.9609375,116149.59375,116330.109375,0.0
1762982317.841012,114933.03125,114662.578125,115230.3984375,115034.78125,115118.734375,115206.7109375,115319.984375,115500.234375,0.0
1762982317.8410203,114100.8359375,113830.5546875,114398.2890625,114202.3125,114286.171875,114374.6875,114487.6953125,114667.3125,0.0
1762982317.8434968,113404.265625,113134.2578125,113701.71875,113505.3828125,113589.15625,113678.0234375,113790.765625,113970.1171875,0.0
1762982317.8497245,112862.546875,112591.9140625,113159.2890625,112963.0390625,113047.0859375,113135.5078125,113248.25,113427.7734375,0.0
1762982317.8593292,112456.90625,112186.453125,112753.5625,112557.3125,112641.3515625,112729.953125,112842.25,113021.421875,0.0
1762982317.8593729,112171.1640625,111900.8828125,112467.8125,112271.390625,112356.0546875,112444.390625,112556.328125,112735.765625,0.0
1762982317.8779163,111888.1875,111617.640625,112184.484375,111987.96875,112072.90625,112161.328125,112272.90625,112452.4375,0.0
1762982317.877934,111478.2578125,111207.625,111774.4609375,111577.765625,111662.8828125,111751.21875,111862.7109375,112041.96875,0.0
1762982317.879996,110938.8671875,110668.0546875,111234.4453125,111038.015625,111123.046875,111211.46875,111322.9609375,111501.7734375,0.0
1762982317.8831508,110208.9453125,109937.8671875,110504.34375,110307.6484375,110392.5859375,110481.28125,110592.6796875,110771.046875,0.0
1762982317.8831663,109200.703125,108929.8046875,109495.75,109298.6953125,109384.4375,109472.9453125,109583.90625,109761.9140625,0.0
1762982317.8849988,107871.1328125,107599.78125,108165.8203125,107968.140625,108054.2421875,108143.0234375,108253.4375,108431.359375,0.0
1762982317.9124875,106439.7265625,106168.109375,106733.515625,106535.9296875,106622.1171875,106711.5234375,106820.9609375,106998.1640625,0.0
1762982317.9149747,105028.2578125,104756.4609375,105321.2421875,105123.4765625,105210.0234375,105299.7890625,105408.1484375,105585.0,0.0
1762982317.9179008,103610.625,103339.2734375,103903.6953125,103704.859375,103792.296875,103882.328125,103989.8828125,104166.2890625,0.0
1762982317.9179175,102189.40625,101917.609375,102481.5,102282.390625,102370.640625,102460.3984375,102567.421875,102743.28125,0.0
1762982317.9196095,100831.4921875,100559.25,101122.875,100923.3203125,101011.828125,101102.0390625,101208.4375,101383.8515625,0.0
1762982317.9279056,99576.7578125,99303.796875,99867.5078125,99667.4140625,99756.1953125,99846.9453125,99952.890625,100127.5078125,0.0
1762982317.9279263,98324.4375,98051.5625,98614.6484375,98414.2890625,98503.609375,98593.90625,98699.671875,98873.9296875,0.0
1762982317.9297109,96867.640625,96594.9453125,97157.4921875,96956.421875,97046.2734375,97137.1953125,97241.8984375,97415.8828125,0.0
1762982317.9322171,95256.34375,94983.203125,95545.84375,95343.875,95434.625,95525.7265625,95629.53125,95802.7109375,0.0
1762982317.934741,93570.3984375,93296.71875,93859.09375,93656.8515625,93747.6875,93838.7109375,93942.421875,94114.703125,0.0
1762982317.9372272,91885.4296875,91611.1328125,92173.0546875,91970.1875,92061.8359375,92152.9375,92255.84375,92427.953125,0.0
1762982317.939727,90254.203125,89979.8984375,90541.375,90337.796875,90430.3359375,90521.7109375,90623.71875,90795.5625,0.0
1762982317.942243,88830.484375,88555.9140625,89117.125,88913.1015625,89006.078125,89097.546875,89198.9296875,89370.234375,0.0
1762982317.9447389,87767.796875,87493.4921875,88054.078125,87849.6015625,87943.296875,88034.9453125,88135.8828125,88306.2890625,0.0
1762982317.9472103,87170.8203125,86895.984375,87456.4765625,87251.6484375,87345.96875,87437.6171875,87538.1953125,87708.3359375,0.0
1762982317.9502876,86988.609375,86713.2421875,87274.1796875,87069.2578125,87163.3125,87255.046875,87355.984375,87525.7734375,0.0
1762982317.9502995,87174.7578125,86899.65625,87460.7734375,87255.671875,87349.640625,87441.28125,87542.1328125,87712.2734375,0.0
1762982317.9565585,87711.6484375,87436.9921875,87998.015625,87793.3671875,87886.8828125,87978.6171875,88079.375,88249.6953125,0.0
1762982317.9565763,88485.5546875,88210.984375,88772.015625,88567.6328125,88660.8828125,88752.703125,88853.5546875,89024.3203125,0.0
1762982317.962223,89288.4296875,89014.125,89575.15625,89370.953125,89463.6640625,89555.484375,89656.6953125,89828.0859375,0.0
1762982317.9665513,90043.828125,89769.2578125,90330.6484375,90127.15625,90219.421875,90311.2421875,90412.6328125,90584.3828125,0.0
1762982317.9665668,90780.8984375,90506.5078125,91067.984375,90864.4921875,90956.8515625,91048.5859375,91150.5078125,91322.4375,0.0
1762982317.974743,91504.5625,91230.703125,91792.2734375,91589.046875,91681.2265625,91772.9609375,91874.96875,92047.4375,0.0
1762982317.9772325,92169.2109375,91895.265625,92457.1875,92253.96875,92345.703125,92437.703125,92539.890625,92712.625,0.0
1762982317.98156,92724.6953125,92451.0234375,93013.125,92810.4375,92901.8125,92993.1875,93096.0,93268.828125,0.0
1762982317.9815767,93254.96875,92981.296875,93543.484375,93341.15625,93432.0859375,93523.1875,93626.546875,93799.3671875,0.0
1762982317.9897234,93773.3515625,93500.125,94062.046875,93860.34375,93951.0,94041.9296875,94145.8203125,94318.2890625,0.0
1762982317.994115,94242.203125,93968.796875,94530.8984375,94329.375,94419.9453125,94510.8671875,94614.578125,94787.5859375,0.0
1762982317.9941328,94596.34375,94322.9375,94885.0390625,94683.15625,94774.265625,94865.0078125,94968.6328125,95141.9921875,0.0
1762982317.9959755,94879.671875,94606.0859375,95168.90625,94966.578125,95057.59375,95148.4296875,95252.765625,95425.859375,0.0
1762982318.0097384,95127.6015625,94853.8359375,95416.46875,95214.3203125,95305.25,95396.1796875,95500.875,95673.515625,0.0
1762982318.0128925,95322.6875,95049.1015625,95611.5546875,95409.859375,95500.515625,95591.4453125,95695.78125,95869.140625,0.0
1762982318.0129068,95432.1171875,95158.625,95721.3515625,95519.6484375,95610.125,95701.0546875,95805.484375,95979.0234375,0.0
1762982318.0147164,95544.1484375,95271.09375,95833.46875,95631.765625,95722.0625,95813.2578125,95917.328125,96090.8671875,0.0
1762982318.0172365,95720.1015625,95446.6953125,96009.1484375,95807.625,95898.015625,95989.125,96092.921875,96266.375,0.0
1762982318.0209064,95990.8203125,95717.5078125,96280.4140625,96078.890625,96169.1015625,96260.0234375,96364.2734375,96537.8125,0.0
1762982318.0284643,96321.09375,96047.7734375,96610.7734375,96409.4296875,96499.3671875,96590.1171875,96694.8125,96868.7109375,0.0
1762982318.032224,96774.4765625,96501.515625,97064.78125,96863.2578125,96952.9296875,97043.9453125,97148.8203125,97322.5390625,0.0
1762982318.03906,97387.71875,97114.671875,97678.203125,97477.03125,97565.90625,97657.1875,97762.3359375,97936.2265625,0.0
1762982318.0390773,98155.8125,97882.671875,98446.203125,98245.3984375,98334.1796875,98425.109375,98530.6953125,98704.953125,0.0
1762982318.047232,98962.7109375,98690.1953125,99253.375,99053.015625,99141.8828125,99232.71875,99338.1328125,99512.7421875,0.0
1762982318.0518987,99784.09375,99511.3984375,100075.203125,99874.84375,99963.53125,100054.4609375,100160.2265625,100335.109375,0.0
1762982318.0519524,100641.59375,100368.9921875,100933.1484375,100732.8828125,100821.390625,100911.78125,101018.359375,101193.5078125,0.0
1762982318.0600057,101518.859375,101245.984375,101810.5,101610.765625,101699.0078125,101789.1328125,101896.3359375,102071.390625,0.0
1762982318.0644877,102311.8046875,102039.3828125,102603.9921875,102404.7890625,102492.6796875,102582.796875,102690.1796875,102865.59375,0.0
1762982318.0645404,102952.8515625,102680.8828125,103245.3046875,103046.109375,103133.9921875,103223.9375,103331.5859375,103507.625,0.0
1762982318.0712585,103471.0546875,103198.7265625,103763.7734375,103564.21875,103652.015625,103741.875,103849.4296875,104025.828125,0.0
1762982318.078159,103871.8671875,103599.890625,104164.765625,103965.2109375,104053.09375,104143.0390625,104250.59375,104427.0859375,0.0
1762982318.0781956,104118.546875,103846.921875,104411.3515625,104212.15625,104300.0390625,104389.7109375,104497.8046875,104674.03125,0.0
1762982318.0803792,104180.4140625,103908.796875,104473.9375,104274.5546875,104362.0,104451.671875,104559.859375,104736.34375,0.0
1762982318.080413,104130.7890625,103859.3515625,104424.2265625,104224.9375,104312.375,104402.5859375,104510.328125,104686.7265625,0.0
1762982318.091027,104006.78125,103735.1640625,104299.59375,104100.9296875,104188.28125,104278.3125,104386.046875,104562.625,0.0
1762982318.0944831,103805.4375,103533.8203125,104098.4296875,103899.9453125,103986.9375,104076.7890625,104184.796875,104361.375,0.0
1762982318.094536,103499.9375,103228.5,103792.921875,103593.9921875,103681.078125,103771.015625,103879.0234375,104055.0625,0.0
1762982318.0962553,103176.015625,102904.21875,103468.9140625,103269.7109375,103356.9765625,103447.09375,103554.65625,103730.609375,0.0
1762982318.1051283,102905.46875,102633.9375,103198.453125,102999.34375,103086.609375,103176.8203125,103284.375,103460.2421875,0.0
1762982318.1075425,102706.359375,102434.7421875,102998.9921875,102799.96875,102887.40625,102977.4453125,103084.7265625,103260.59375,0.0
1762982318.1113713,102522.0,102250.296875,102814.8125,102615.34375,102702.875,102792.8203125,102900.375,103076.234375,0.0
1762982318.1208265,102419.3671875,102148.015625,102712.0859375,102512.34375,102600.234375,102689.8203125,102797.5546875,102973.421875,0.0
1762982318.1208813,102470.234375,102198.9765625,102763.046875,102563.578125,102651.2890625,102741.40625,102848.7890625,103024.6484375,0.0
1762982318.1225245,102719.5,102447.8828125,103012.3984375,102813.203125,102900.5546875,102990.671875,103098.140625,103274.5390625,0.0
1762982318.1347516,103110.4765625,102838.859375,103403.2890625,103204.0859375,103291.7109375,103381.6484375,103489.296875,103665.515625,0.0
1762982318.1379056,103632.3515625,103360.90625,103925.2421875,103726.046875,103813.484375,103903.34375,104011.2578125,104187.65625,0.0
1762982318.137924,104337.765625,104066.328125,104630.84375,104432.1796875,104519.3515625,104608.671875,104717.125,104894.0625,0.0
1762982318.13974,105237.7421875,104966.4765625,105531.171875,105333.140625,105419.4140625,105508.734375,105617.8984375,105794.8359375,0.0
1762982318.1422095,106198.953125,105927.78125,106492.921875,106294.9765625,106380.984375,106470.3046875,106579.6484375,106756.9453125,0.0
1762982318.153576,107206.5703125,106935.6640625,107501.078125,107303.3984375,107389.5,107478.6328125,107588.15625,107766.078125,0.0
1762982318.1578877,108309.765625,108038.7734375,108604.625,108407.3046875,108492.9609375,108582.09375,108692.15625,108870.078125,0.0
1762982318.1579063,109506.390625,109235.3046875,109801.609375,109604.5546875,109689.7578125,109778.8984375,109889.3203125,110067.6875,0.0
1762982318.164052,110711.859375,110440.9609375,111007.9765625,110811.1015625,110896.0390625,110984.8203125,111095.6875,111274.6796875,0.0
1762982318.1640658,111884.34375,111613.53125,112181.0,111984.390625,112069.0625,112157.5703125,112269.0625,112448.234375,0.0
1762982318.1779184,113067.828125,112797.7265625,113364.8359375,113168.765625,113252.984375,113341.3203125,113453.5234375,113633.0546875,0.0
1762982318.177941,114276.4296875,114006.328125,114573.796875,114378.3515625,114461.859375,114550.28125,114662.9375,114842.8203125,0.0
1762982318.1803348,115449.09375,115178.8984375,115746.8125,115551.375,115635.0546875,115723.125,115836.3984375,116016.6484375,0.0
1762982318.1803637,116528.140625,116258.671875,116826.671875,116631.5,116714.6484375,116802.4453125,116916.5234375,117097.1328125,0.0
1762982318.1822584,117562.578125,117293.1953125,117861.9140625,117666.5625,117749.53125,117837.1484375,117951.7734375,118132.8203125,0.0
1762982318.1966531,118598.09375,118328.796875,118897.4296875,118702.609375,118785.1328125,118873.109375,118987.546875,119169.1328125,0.0
1762982318.1966724,119623.6796875,119354.65625,119923.4609375,119729.0,119811.078125,119898.875,120014.03125,120196.3359375,0.0
1762982318.1990757,120593.390625,120324.6328125,120893.53125,120699.3359375,120781.3203125,120868.4921875,120984.8984375,121166.9375,0.0
1762982318.1990917,121562.5625,121293.7109375,121862.96875,121668.953125,121750.8515625,121838.109375,121954.609375,122136.9140625,0.0
1762982318.2097907,122579.8359375,122311.078125,122880.328125,122686.8515625,122768.03125,122855.4765625,122972.421875,123155.1640625,0.0
1762982318.2196743,123640.734375,123372.4296875,123941.859375,123749.1015625,123829.8359375,123916.828125,124034.0390625,124217.5,0.0
1762982318.2196965,124656.9375,124388.890625,124958.59375,124765.7421875,124846.65625,124933.46875,125050.953125,125234.953125,0.0
1762982318.219704,125644.6171875,125376.9296875,125946.3671875,125754.046875,125834.6953125,125921.6875,126039.171875,126223.34375,0.0
1762982318.2228909,126647.5859375,126380.1640625,126949.5078125,126757.9140625,126837.5703125,126924.7421875,127042.671875,127227.296875,0.0
1762982318.2229085,127601.5546875,127334.140625,127904.015625,127712.2421875,127791.7265625,127878.5390625,127997.09375,128181.71875,0.0
1762982318.2247257,128054.2265625,127787.25,128357.4921875,128165.625,128245.1953125,128331.4765625,128450.65625,128635.4609375,0.0
1762982318.2409973,128027.8515625,127760.609375,128330.671875,128139.0703125,128218.640625,128305.3671875,128424.0078125,128608.90625,0.0
1762982318.2437646,128036.0703125,127768.8359375,128338.625,128146.7578125,128226.6875,128313.328125,128432.5,128616.6796875,0.0
1762982318.2486508,128259.3203125,127992.0859375,128562.0546875,128370.2734375,128450.1171875,128536.0390625,128655.6640625,128840.203125,0.0
1762982318.2486677,128445.9140625,128178.859375,128748.9140625,128557.671875,128636.9765625,128722.8984375,128842.8828125,129027.328125,0.0
1762982318.2486763,128560.4453125,128293.296875,128863.1796875,128671.9375,128751.2421875,128837.9609375,128957.234375,129141.9453125,0.0
1762982318.2531445,128808.015625,128540.7734375,129110.65625,128919.4140625,128998.09375,129085.4453125,129204.8046875,129390.0546875,0.0
1762982318.2531605,129164.9296875,128897.8671875,129468.1015625,129276.5078125,129355.6328125,129442.359375,129562.1640625,129747.0546875,0.0
1762982318.2587323,129556.6171875,129289.46875,129859.4375,129668.015625,129747.234375,129833.78125,129953.5859375,130138.390625,0.0
1762982318.2672608,129921.9375,129655.140625,130224.484375,130033.515625,130112.640625,130199.453125,130319.078125,130504.5078125,0.0
1762982318.271602,130329.8125,130063.1953125,130632.6328125,130441.9296875,130520.9609375,130607.328125,130727.3984375,130912.7421875,0.0
1762982318.2716212,130803.84375,130537.4140625,131106.9375,130916.2265625,130995.0,131081.28125,131201.703125,131386.953125,0.0
1762982318.279755,131280.734375,131014.6640625,131584.375,131393.75,131472.34375,131558.625,131679.140625,131864.65625,0.0
1762982318.2828965,131670.46875,131404.296875,131973.921875,131783.5625,131861.796875,131947.984375,132068.6875,132254.46875,0.0
1762982318.2829137,132004.3125,131738.59375,132307.9375,132117.328125,132195.828125,132281.921875,132403.0625,132588.859375,0.0
1762982318.2847393,132326.984375,132061.53125,132630.78125,132440.625,132519.125,132604.953125,132726.09375,132912.0625,0.0
1762982318.2987404,132635.34375,132370.078125,132939.59375,132749.609375,132827.578125,132913.765625,133034.546875,133220.6875,0.0
1762982318.3018107,132859.765625,132594.578125,133163.921875,132973.484375,133051.8125,133137.8125,133259.046875,133445.28125,0.0
1762982318.3018267,133037.40625,132772.3125,133341.84375,133150.953125,133229.453125,133315.46875,133436.796875,133623.03125,0.0
1762982318.30358,133210.328125,132945.046875,133514.75,133324.234375,133402.734375,133488.203125,133610.0625,133796.125,0.0
1762982318.3062437,133399.78125,133135.046875,133704.5625,133514.21875,133592.265625,133677.75,133800.046875,133986.203125,0.0
1762982318.314747,133562.234375,133297.234375,133866.75,133677.03125,133754.453125,133840.109375,133962.234375,134148.828125,0.0
1762982318.3181417,133712.796875,133447.4375,134017.3125,133827.328125,133905.109375,133991.03125,134112.890625,134299.484375,0.0
1762982318.3181577,133873.8125,133609.171875,134178.0625,133988.515625,134066.3125,134152.578125,134274.171875,134460.40625,0.0
1762982318.3200016,134068.546875,133804.078125,134372.875,134183.515625,134261.03125,134347.046875,134469.0,134655.40625,0.0
1762982318.3337393,134246.375,133981.546875,134550.71875,134361.34375,134438.953125,134524.609375,134646.828125,134833.15625,0.0
1762982318.3359091,134393.984375,134129.421875,134698.328125,134508.953125,134586.390625,134672.390625,134794.703125,134981.390625,0.0
1762982318.3443384,134529.078125,134264.875,134834.140625,134644.234375,134721.65625,134807.484375,134929.984375,135116.5625,0.0
1762982318.34436,134670.34375,134406.328125,134975.484375,134785.578125,134863.28125,134949.015625,135071.0625,135257.828125,0.0
1762982318.3459804,134772.078125,134507.625,135077.046875,134887.328125,134965.109375,135050.671875,135172.71875,135359.578125,0.0
1762982318.3549924,134799.625,134535.15625,135104.5,134915.3125,134992.828125,135078.21875,135200.4375,135387.296875,0.0
1762982318.3572323,134795.0625,134530.6875,135099.84375,134910.578125,134988.0,135073.390625,135195.96875,135382.5625,0.0
1762982318.3606708,134810.984375,134546.59375,135115.671875,134926.3125,135003.921875,135089.125,135212.0625,135398.375,0.0
1762982318.360687,134759.03125,134494.75,135064.09375,134874.359375,134952.0625,135037.4375,135160.203125,135346.609375,0.0
1762982318.3626833,134633.5,134369.125,134938.296875,134748.84375,134826.4375,134911.921875,135034.3125,135220.8125,0.0
1762982318.3760116,134542.21875,134277.578125,134846.828125,134657.203125,134735.0625,134820.625,134942.9375,135129.4375,0.0
1762982318.3790648,134522.375,134257.71875,134826.984375,134637.171875,134715.40625,134800.96875,134922.640625,135109.6875,0.0
1762982318.379082,134525.140625,134260.671875,134829.9375,134640.125,134718.0,134803.5625,134925.78125,135112.71875,0.0
1762982318.3812327,134458.0,134193.796875,134762.78125,134573.25,134651.03125,134736.5,134858.71875,135045.671875,0.0
1762982318.383863,134390.234375,134126.03125,134695.109375,134505.390625,134583.25,134669.09375,134790.953125,134978.25,0.0
1762982318.3981583,134377.890625,134113.953125,134682.953125,134493.046875,134571.1875,134657.015625,134778.796875,134965.375,0.0
1762982318.3981757,134398.546875,134134.4375,134703.515625,134513.78125,134591.578125,134677.21875,134799.265625,134985.953125,0.0
1762982318.39981,134408.734375,134144.359375,134713.609375,134524.0625,134601.3125,134687.328125,134809.015625,134996.5,0.0
1762982318.4022446,134402.125,134137.65625,134706.734375,134517.09375,134594.609375,134680.53125,134802.578125,134989.515625,0.0
1762982318.404998,134387.09375,134122.28125,134691.34375,134501.546875,134579.5,134665.328125,134787.46875,134974.0625,0.0
1762982318.4088523,134357.953125,134092.953125,134662.375,134472.578125,134550.4375,134636.0,134758.046875,134944.546875,0.0
1762982318.4229195,134247.53125,133983.0625,134551.96875,134362.515625,134440.5625,134525.953125,134647.625,134834.140625,0.0
1762982318.4229388,134106.265625,133841.265625,134410.796875,134220.984375,134299.125,134384.5,134506.546875,134693.046875,0.0
1762982318.425653,133970.375,133705.109375,134274.53125,134084.453125,134162.859375,134248.421875,134370.46875,134556.703125,0.0
1762982318.4256692,133822.3125,133557.140625,134126.390625,133936.390625,134015.078125,134100.734375,134222.40625,134408.734375,0.0
1762982318.4272463,133601.296875,133336.296875,133905.640625,133715.5625,133793.890625,133879.359375,134001.125,134187.625,0.0
1762982318.4412577,133332.71875,133067.453125,133637.421875,133447.15625,133525.125,133610.953125,133732.546875,133918.875,0.0
1762982318.448845,133066.375,132801.203125,133371.25,133180.90625,133258.421875,133344.796875,133466.203125,133652.359375,0.0
1762982318.4488614,132835.078125,132569.984375,133139.875,132949.25,133027.484375,133113.5,133234.828125,133420.609375,0.0
1762982318.4488692,132570.796875,132305.875,132875.40625,132685.328125,132763.375,132849.390625,132970.625,133156.5,0.0
1762982318.4518657,132231.40625,131965.6875,132535.390625,132345.40625,132423.453125,132509.28125,132630.703125,132816.3125,0.0
1762982318.4518814,131882.546875,131616.734375,132186.4375,131996.171875,132074.9375,132160.59375,132281.5625,132467.171875,0.0
1762982318.4572275,131566.484375,131300.40625,131870.5625,131680.03125,131758.890625,131844.28125,131965.0625,132150.765625,0.0
1762982318.466575,131233.171875,130967.015625,131537.421875,131346.8125,131425.046875,131511.140625,131631.75,131817.0,0.0
1762982318.466591,130842.828125,130576.75,131146.8125,130955.8359375,131034.6015625,131120.34375,131241.5,131426.65625,0.0
1762982318.4690616,130452.03125,130186.21875,130756.015625,130564.6796875,130643.984375,130729.640625,130850.0703125,131035.40625,0.0
1762982318.469077,130097.4375,129831.09375,130401.421875,130209.5546875,130289.21875,130375.3203125,130495.390625,130680.28125,0.0
1762982318.4822595,129751.6171875,129485.0,130055.5078125,129863.734375,129943.390625,130029.3125,130149.2109375,130334.28125,0.0
1762982318.4853091,129363.5859375,129097.0625,129667.2109375,129475.8828125,129555.3671875,129641.109375,129760.734375,129946.34375,0.0
1762982318.4853241,128995.234375,128728.265625,129298.3203125,129107.171875,129186.828125,129272.484375,129392.5546875,129577.625,0.0
1762982318.4945428,128675.0625,128408.0078125,128978.0625,128786.5546875,128866.125,128952.40625,129072.296875,129256.65625,0.0
1762982318.4945953,128377.515625,128110.1953125,128680.4296875,128488.5625,128568.40625,128654.6796875,128774.3046875,128958.75,0.0
1762982318.5029128,128031.421875,127764.1875,128334.2421875,128142.46875,128222.0390625,128308.5,128427.8515625,128612.3046875,0.0
1762982318.5029392,127672.9921875,127406.0234375,127976.078125,127784.125,127864.140625,127950.2421875,128069.5078125,128254.046875,0.0
1762982318.5078845,127349.4296875,127082.0078125,127652.0703125,127460.203125,127540.21875,127626.5,127745.859375,127929.859375,0.0
1762982318.5079005,127071.640625,126803.8671875,127374.015625,127181.96875,127261.984375,127348.53125,127467.625,127651.53125,0.0
1762982318.5097318,126763.9921875,126496.125,127066.453125,126874.0546875,126954.3359375,127040.8828125,127159.6171875,127343.796875,0.0
1762982318.5234904,126439.0,126171.1328125,126740.921875,126548.6953125,126628.984375,126715.9765625,126834.4453125,127018.0859375,0.0
1762982318.5284228,126154.0546875,125886.015625,126456.0703125,126264.1171875,126344.3125,126431.21875,126549.4140625,126733.234375,0.0
1762982318.528437,125935.8125,125667.953125,126237.7421875,126046.0546875,126126.25,126212.9765625,126331.0859375,126514.9921875,0.0
1762982318.5284443,125709.8828125,125441.84375,126011.453125,125819.046875,125899.6015625,125986.1484375,126104.6171875,126288.1640625,0.0
1762982318.5310137,125479.75,125211.703125,125781.40625,125588.9140625,125669.46875,125756.1953125,125874.125,126058.125,0.0
1762982318.5498073,125304.421875,125036.203125,125606.078125,125413.5,125494.140625,125581.40625,125698.8828125,125882.2578125,0.0
1762982318.5563505,125203.484375,124935.171875,125505.2265625,125312.734375,125393.203125,125480.375,125598.125,125781.40625,0.0
1762982318.5622413,125119.703125,124851.84375,125421.9921875,125229.234375,125309.515625,125396.5078125,125514.6171875,125698.2578125,0.0
1762982318.5651784,125033.6953125,124765.4765625,125335.890625,125143.0390625,125223.0625,125310.4140625,125428.515625,125611.7109375,0.0
1762982318.567608,124979.875,124711.3828125,125281.625,125088.953125,125169.2421875,125256.5,125374.3359375,125557.53125,0.0
1762982318.5703082,124951.4453125,124683.046875,125253.3671875,125060.7890625,125140.984375,125227.7109375,125345.640625,125528.921875,0.0
1762982318.572247,124887.609375,124619.203125,125189.8046875,124996.6796875,125077.0625,125163.9609375,125282.0703125,125465.171875,0.0
1762982318.5747595,124700.7421875,124432.4375,125002.671875,124810.0,124890.2890625,124977.1953125,125095.2109375,125278.671875,0.0
1762982318.577606,124419.2890625,124150.7109375,124720.59375,124528.0078125,124608.390625,124695.5625,124813.3984375,124996.5078125,0.0
1762982318.5802271,124093.046875,123824.2890625,124394.4375,124201.5,124281.9609375,124369.40625,124487.0625,124669.8984375,0.0
1762982318.5822551,123701.625,123432.7734375,124002.4765625,123809.71875,123890.1796875,123977.8046875,124094.8359375,124277.8515625,0.0
1762982318.5853376,123194.1484375,122925.125,123495.0,123301.8828125,123382.53125,123470.234375,123587.1796875,123770.2890625,0.0
1762982318.585353,122618.4609375,122349.34375,122919.046875,122725.8359375,122806.8359375,122894.28125,123010.953125,123193.7890625,0.0
1762982318.5875223,122023.1875,121754.0703125,122323.5,122130.0234375,122211.4765625,122298.828125,122415.0546875,122598.0703125,0.0
1762982318.6018898,121404.3125,121135.109375,121704.453125,121510.8828125,121592.421875,121679.859375,121796.09375,121978.390625,0.0
1762982318.60191,120696.8359375,120427.453125,120996.6171875,120803.2265625,120884.765625,120972.4765625,121088.2578125,121270.375,0.0
1762982318.6035116,119950.9140625,119681.171875,120250.0625,120056.5,120138.484375,120226.28125,120341.4375,120523.4765625,0.0
1762982318.6059997,119222.6015625,118953.125,119522.1171875,119327.921875,119410.0859375,119497.796875,119613.1328125,119794.625,0.0
1762982318.6085887,118526.390625,118257.1875,118825.90625,118631.796875,118713.6953125,118801.5859375,118916.5625,119097.875,0.0
1762982318.6129062,117796.828125,117527.359375,118095.8046875,117901.4375,117983.78125,118071.6640625,118186.28125,118367.15625,0.0
1762982318.6129236,117074.0625,116804.5859375,117372.7734375,117177.953125,117260.65625,117348.71875,117462.984375,117643.5859375,0.0
1762982318.6212647,116407.53125,116137.703125,116705.9765625,116510.6171875,116593.6796875,116682.015625,116796.0078125,116976.609375,0.0
1762982318.6234949,115811.1875,115540.734375,116108.9140625,115913.109375,115997.0625,116084.953125,116198.765625,116378.8359375,0.0
1762982318.6275256,115220.390625,114950.1953125,115518.0234375,115322.3125,115406.265625,115494.2421875,115607.609375,115787.8515625,0.0
1762982318.6418445,114610.453125,114340.0,114907.90625,114712.109375,114795.8828125,114884.3046875,114997.40625,115177.3828125,0.0
1762982318.641878,114001.234375,113730.78125,114298.6015625,114102.7109375,114186.5703125,114275.0,114388.0078125,114567.5390625,0.0
1762982318.6437628,113422.5,113151.78125,113719.2421875,113523.265625,113607.6640625,113695.640625,113808.921875,113988.4453125,0.0
1762982318.6462843,112816.3203125,112545.6015625,113112.9765625,112916.4609375,113000.859375,113089.1953125,113201.7578125,113381.375,0.0
1762982318.6485996,112132.625,111861.3671875,112428.921875,112232.40625,112316.8046875,112405.6796875,112517.703125,112696.9609375,0.0
1762982318.6581771,111426.9375,111155.40625,111722.6953125,111526.0,111610.671875,111699.8046875,111811.2109375,111990.203125,0.0
1762982318.6582127,110728.9375,110457.6796875,111024.9609375,110828.09375,110912.8515625,111001.8984375,111112.765625,111291.6640625,0.0
1762982318.6601243,109981.40625,109710.234375,110277.078125,110080.109375,110164.9609375,110253.921875,110364.9609375,110543.328125,0.0
1762982318.6625352,109136.6015625,108865.15625,109432.0,109234.6796875,109319.703125,109409.0234375,109519.796875,109697.71875,0.0
1762982318.6685605,108263.5390625,107991.921875,108558.765625,108360.90625,108446.375,108535.609375,108646.109375,108823.9453125,0.0
1762982318.6806223,107408.71875,107137.28125,107703.3125,107505.3671875,107591.2890625,107680.6953125,107790.9375,107967.9609375,0.0
1762982318.68066,106558.1953125,106286.3046875,106852.25,106654.390625,106740.2265625,106829.8984375,106939.2421875,107116.359375,0.0
1762982318.682531,105637.921875,105365.7734375,105931.4453125,105733.234375,105819.3359375,105909.453125,106017.8125,106194.84375,0.0
1762982318.6847837,104699.953125,104427.53125,104993.390625,104794.546875,104881.3671875,104971.21875,105079.4921875,105255.890625,0.0
1762982318.6875892,103804.90625,103532.65625,104097.890625,103899.140625,103986.21875,104076.34375,104183.8125,104360.4765625,0.0
1762982318.6964805,102956.875,102684.3671875,103249.328125,103050.3125,103137.75,103227.9609375,103335.3359375,103511.734375,0.0
1762982318.7006116,102077.5625,101804.9609375,102369.921875,102170.0078125,102257.8046875,102348.109375,102455.3046875,102631.4375,0.0
1762982318.7006485,101215.140625,100942.359375,101506.96875,101307.140625,101395.3828125,101485.328125,101591.9921875,101767.6796875,0.0
1762982318.702526,100424.6953125,100152.0,100716.25,100516.3359375,100604.7578125,100694.8828125,100801.09375,100976.15625,0.0
1762982318.713889,99718.203125,99445.421875,100009.3984375,99809.3046875,99898.0,99988.296875,100094.3359375,100269.125,0.0
1762982318.7168465,99022.7890625,98749.921875,99313.6328125,99113.09375,99201.875,99292.53125,99398.484375,99573.09375,0.0
1762982318.7168832,98353.8515625,98080.890625,98644.5078125,98443.8828125,98532.9296875,98623.3203125,98728.9140625,98903.703125,0.0
1762982318.7187653,97760.8125,97487.5859375,98050.9375,97850.484375,97939.8984375,98029.9296875,98135.7890625,98309.859375,0.0
1762982318.7251465,97256.6484375,96983.2421875,97546.4140625,97345.875,97435.1953125,97525.671875,97631.265625,97804.890625,0.0
1762982318.7294729,96763.2109375,96489.8046875,97053.0703125,96852.4375,96941.7578125,97032.5,97137.5546875,97311.2734375,0.0
1762982318.7295265,96263.421875,95989.6640625,96552.921875,96352.0234375,96441.7890625,96532.453125,96637.1484375,96810.8671875,0.0
1762982318.7374914,95801.9921875,95528.0546875,96091.4921875,95890.1484375,95980.0078125,96070.9296875,96175.359375,96348.984375,0.0
1762982318.7466369,95402.8828125,95129.5625,95692.5625,95491.0390625,95580.8046875,95671.7265625,95776.3359375,95949.4296875,0.0
1762982318.7466702,95002.609375,94729.203125,95292.015625,95090.40625,95180.703125,95271.09375,95376.0625,95548.6171875,0.0
1762982318.7492323,94564.15625,94290.75,94853.296875,94651.234375,94742.34375,94832.5546875,94937.0703125,95109.5390625,0.0
1762982318.7492576,94153.328125,93880.1015625,94442.7421875,94240.6796875,94331.25,94422.0,94526.515625,94698.7109375,0.0
1762982318.761495,93803.8359375,93530.1640625,94093.0703125,93891.1875,93981.3984375,94072.328125,94176.484375,94348.953125,0.0
1762982318.7684352,93482.421875,93208.390625,93771.296875,93569.1484375,93659.4453125,93750.734375,93854.3515625,94026.7265625,0.0
1762982318.7684655,93132.8359375,92859.1640625,93421.8046875,93219.296875,93310.3984375,93401.7734375,93504.59375,93676.8828125,0.0
1762982318.768474,92820.8984375,92547.3984375,93110.0390625,92907.265625,92998.7265625,93089.4765625,93192.5625,93364.9375,0.0
1762982318.7710676,92595.953125,92321.7421875,92884.109375,92681.515625,92772.796875,92863.7265625,92966.8125,93139.3671875,0.0
1762982318.7747357,92442.703125,92169.125,92731.4921875,92528.984375,92620.265625,92711.2890625,92814.375,92986.75,0.0
1762982318.7865899,92294.734375,92021.2421875,92583.7890625,92380.75,92472.2109375,92563.3203125,92666.3125,92838.421875,0.0
1762982318.7866123,92207.296875,91933.53125,92496.0859375,92292.859375,92384.5,92475.4296875,92578.3359375,92750.625,0.0
1762982318.788746,92244.8515625,91970.8203125,92533.3671875,92330.6796875,92422.3203125,92513.0703125,92616.0703125,92788.4453125,0.0
1762982318.797916,92415.4375,92141.40625,92703.953125,92501.265625,92592.734375,92683.8359375,92786.65625,92959.03125,0.0
1762982318.7979374,92624.3828125,92350.53125,92913.078125,92710.125,92801.40625,92892.6015625,92995.6015625,93168.15625,0.0
1762982318.7997348,92886.1640625,92612.1328125,93175.125,92971.8203125,93063.28125,93154.5625,93257.5625,93430.1171875,0.0
1762982318.8118265,93252.015625,92977.8984375,93540.625,93338.03125,93429.1328125,93520.328125,93623.7734375,93796.1484375,0.0
1762982318.8118432,93733.921875,93459.9765625,94022.4375,93820.203125,93911.125,94002.5,94106.125,94278.6796875,0.0
1762982318.8226295,94240.3203125,93966.828125,94529.375,94327.2265625,94417.8828125,94509.2578125,94612.96875,94785.5234375,0.0
1762982318.8226452,94765.859375,94491.9140625,95054.9140625,94853.1171875,94943.328125,95034.34375,95138.59375,95311.2421875,0.0
1762982318.8422024,95357.375,95083.1640625,95646.875,95445.4375,95534.84375,95625.59375,95730.203125,95903.5625,0.0
1762982318.8422308,96027.4765625,95753.8046875,96317.4296875,96115.7265625,96205.578125,96296.1484375,96401.109375,96574.7421875,0.0
1762982318.8422403,96702.3203125,96429.0078125,96992.359375,96790.9296875,96880.8671875,96971.6171875,97076.671875,97250.390625,0.0
1762982318.8447473,97349.984375,97076.8515625,97640.1171875,97439.21875,97528.8046875,97619.1015625,97724.6015625,97898.5,0.0
1762982318.8490272,98026.4375,97753.484375,98317.1953125,98116.3828125,98205.4375,98296.359375,98401.859375,98575.84375,0.0
1762982318.849043,98756.625,98483.671875,99047.3828125,98846.75,98935.53125,99026.3671875,99131.9609375,99306.75,0.0
1762982318.84905,99478.765625,99205.8984375,99769.96875,99569.3359375,99658.2109375,99748.7734375,99854.8125,100029.78125,0.0
1762982318.8490562,100152.2734375,99879.578125,100443.9140625,100243.5546875,100332.3359375,100422.4609375,100528.8515625,100703.8203125,0.0
1762982318.8510065,100834.984375,100562.46875,101126.5390625,100926.5390625,101015.140625,101105.078125,101211.7421875,101387.25,0.0
1762982318.853505,101553.453125,101281.125,101845.640625,101645.7265625,101733.8828125,101823.6484375,101931.0234375,102106.4375,0.0
1762982318.86236,102267.1953125,101995.125,102559.375,102360.1796875,102447.9765625,102537.9140625,102645.296875,102820.890625,0.0
1762982318.8691032,102913.15625,102640.9140625,103205.6953125,103006.5859375,103094.2109375,103184.0625,103291.796875,103467.75,0.0
1762982318.8691216,103543.8359375,103271.59375,103836.4609375,103637.4453125,103724.9765625,103814.3828125,103922.7421875,104098.6953125,0.0
1762982318.87103,104211.3515625,103939.546875,104504.421875,104305.671875,104392.7578125,104482.1640625,104591.0625,104767.015625,0.0
1762982318.8772333,104916.9453125,104645.328125,105210.6484375,105012.078125,105098.9765625,105188.03125,105297.1953125,105473.6875,0.0
1762982318.8815634,105605.6484375,105333.5859375,105899.3515625,105700.8671875,105787.4140625,105876.8203125,105986.078125,106162.8359375,0.0
1762982318.8815756,106278.796875,106007.0,106572.5859375,106374.3671875,106460.6484375,106550.1484375,106659.4921875,106836.6015625,0.0
1762982318.8872304,107024.71875,106753.28125,107318.8671875,107120.828125,107207.2890625,107296.3359375,107406.21875,107583.6015625,0.0
1762982318.8965976,107838.765625,107567.5078125,108133.71875,107936.0390625,108022.0546875,108110.921875,108221.0703125,108398.6328125,0.0
1762982318.8966155,108606.4140625,108335.421875,108901.3671875,108703.8671875,108789.7890625,108878.75,108989.078125,109166.90625,0.0
1762982318.8984993,109354.75,109083.578125,109649.8828125,109452.296875,109538.5703125,109627.0,109737.59375,109915.78125,0.0
1762982318.9022884,110133.578125,109862.4921875,110428.890625,110231.921875,110317.578125,110406.0859375,110516.8671875,110695.5,0.0
1762982318.914086,110957.8203125,110687.09375,111253.9375,111056.96875,111142.1796875,111230.8671875,111342.0,111520.9921875,0.0
1762982318.9141119,111760.9609375,111490.4140625,112057.2578125,111860.7421875,111945.0546875,112033.8359375,112145.6796875,112324.9453125,0.0
1762982318.9169588,112560.171875,112290.0703125,112857.1796875,112660.7578125,112744.9765625,112833.6640625,112945.6015625,113125.2265625,0.0
1762982318.9169772,113414.453125,113144.359375,113711.640625,113515.21875,113599.6171875,113688.0390625,113800.6015625,113980.2265625,0.0
1762982318.9225273,114309.421875,114039.3203125,114606.7890625,114410.8046875,114494.9375,114583.09375,114696.1953125,114876.2578125,0.0
1762982318.928513,115186.234375,114916.046875,115483.9609375,115288.25,115371.75,115460.0859375,115573.3671875,115753.7890625,0.0
1762982318.932914,116000.4609375,115730.0078125,116298.453125,116102.8359375,116185.984375,116274.671875,116388.0390625,116568.734375,0.0
1762982318.9329317,116812.7265625,116542.265625,117110.71875,116915.546875,116998.6953125,117086.578125,117200.6640625,117381.4453125,0.0
1762982318.9410017,117659.5,117389.21875,117958.03125,117762.8515625,117845.9140625,117933.6171875,118048.1484375,118229.109375,0.0
1762982318.9440708,118493.3984375,118223.65625,118792.2890625,118597.5546875,118680.078125,118768.0546875,118882.9453125,119064.0859375,0.0
1762982318.9440894,119287.15625,119018.0390625,119586.578125,119392.1171875,119474.8203125,119562.5234375,119677.59375,119859.265625,0.0
1762982318.952253,120099.59375,119830.4765625,120399.2890625,120204.6484375,120287.6171875,120375.1484375,120490.6640625,120672.3359375,0.0
1762982318.9559999,120953.609375,120684.4921875,121253.65625,121059.109375,121141.453125,121229.0703125,121345.2109375,121527.15625,0.0
1762982318.9739537,121835.7890625,121566.9453125,122136.4609375,121942.453125,122023.8125,122111.5234375,122228.1953125,122410.5,0.0
1762982318.9774077,122710.28125,122441.34375,123010.953125,122817.8359375,122898.75,122986.28125,123103.3984375,123286.1484375,0.0
1762982318.9774415,123608.4609375,123339.5234375,123909.40625,123716.109375,123797.46875,123884.546875,124002.03125,124184.8671875,0.0
1762982318.9774508,124560.9140625,124292.6953125,124862.125,124669.0078125,124750.1015625,124837.0,124954.84375,125138.390625,0.0
1762982318.9798224,125573.5390625,125305.4921875,125875.015625,125682.34375,125762.8125,125849.8046875,125968.0,126151.9140625,0.0
1762982318.982443,126588.125,126320.265625,126889.875,126697.6484375,126777.8515625,126864.84375,126983.125,127167.5703125,0.0
1762982318.985016,127633.296875,127365.875,127935.3125,127743.7109375,127823.28125,127910.0078125,128029.1015625,128213.9921875,0.0
1762982318.9912715,128750.703125,128483.6484375,129053.4375,128862.1015625,128941.2265625,129027.7734375,129147.3984375,129332.5625,0.0
1762982318.9938147,129933.46875,129667.0390625,130236.734375,130045.671875,130124.7109375,130210.6328125,130330.8828125,130516.1328125,0.0
1762982318.99604,131100.9375,130834.9609375,131404.21875,131213.515625,131292.359375,131378.015625,131499.15625,131684.59375,0.0
1762982319.002679,132252.421875,131986.703125,132556.046875,132365.96875,132444.1875,132530.03125,132651.4375,132837.3125,0.0
1762982319.0091321,133416.859375,133151.5,133720.84375,133530.578125,133608.90625,133694.546875,133816.328125,134002.640625,0.0
1762982319.009159,134595.78125,134331.125,134900.46875,134710.484375,134788.265625,134873.921875,134996.140625,135182.734375,0.0
1762982319.0115762,135728.5625,135464.28125,136033.4375,135843.984375,135921.234375,136006.703125,136129.375,136316.40625,0.0
1762982319.0115902,136827.375,136563.796875,137132.421875,136943.6875,137020.40625,137105.96875,137229.078125,137416.203125,0.0
1762982319.0272892,137941.46875,137678.34375,138246.96875,138058.328125,138134.859375,138220.328125,138343.796875,138531.375,0.0
1762982319.03033,139090.53125,138827.9375,139396.390625,139208.109375,139284.015625,139369.21875,139493.3125,139681.328125,0.0
1762982319.0303483,140233.421875,139971.734375,140539.734375,140351.53125,140427.34375,140512.1875,140637.0,140825.734375,0.0
1762982319.033156,141339.03125,141077.953125,141645.515625,141457.765625,141533.125,141618.328125,141743.328125,141932.421875,0.0
1762982319.0331717,142341.8125,142081.1875,142648.484375,142461.0,142536.09375,142621.03125,142746.828125,142935.75,0.0
1762982319.0409987,143051.96875,142791.71875,143358.734375,143171.6875,143246.703125,143331.1875,143456.984375,143646.71875,0.0
1762982319.04792,143631.78125,143371.515625,143938.625,143751.859375,143826.59375,143911.171875,144037.15625,144227.046875,0.0
1762982319.0479448,144152.671875,143892.9375,144460.3125,144273.71875,144348.109375,144432.78125,144558.84375,144748.734375,0.0
1762982319.0613856,144622.59375,144363.125,144929.875,144743.828125,144817.9375,144902.15625,145029.21875,145218.484375,0.0
1762982319.0663245,145124.78125,144865.6875,145432.34375,145246.015625,145320.40625,145404.71875,145531.765625,145721.40625,0.0
1762982319.0663595,145619.921875,145361.0,145927.390625,145741.34375,145815.71875,145899.859375,146027.171875,146216.984375,0.0
1762982319.0663693,146067.40625,145808.921875,146375.140625,146189.0,146263.75,146347.421875,146474.921875,146665.1875,0.0
1762982319.069363,146472.59375,146214.390625,146780.421875,146594.1875,146668.75,146752.625,146880.296875,147070.546875,0.0
1762982319.0693984,146891.109375,146633.171875,147199.125,147013.0625,147087.53125,147171.21875,147299.171875,147489.15625,0.0
1762982319.0814736,147321.15625,147063.21875,147629.171875,147443.109375,147517.140625,147601.453125,147729.125,147918.75,0.0
1762982319.0855892,147715.796875,147458.21875,148023.984375,147838.015625,147911.953125,147996.1875,148123.765625,148314.46875,0.0
1762982319.0856228,148081.203125,147823.53125,148389.75,148203.78125,148277.640625,148361.40625,148489.171875,148680.328125,0.0
1762982319.0921497,148429.8125,148172.3125,148737.984375,148552.203125,148626.140625,148709.828125,148837.59375,149028.65625,0.0
1762982319.0922031,148746.3125,148488.90625,149054.578125,148868.703125,148942.734375,149026.15625,149154.453125,149345.25,0.0
1762982319.105698,148977.953125,148720.828125,149286.6875,149101.078125,149174.75,149258.34375,149386.90625,149577.703125,0.0
1762982319.1057477,149120.46875,148863.34375,149429.109375,149243.953125,149317.171875,149401.21875,149529.78125,149720.390625,0.0
1762982319.1082048,149185.828125,148929.046875,149494.828125,149309.578125,149382.796875,149466.5625,149595.21875,149785.84375,0.0
1762982319.108244,149232.6875,148976.078125,149541.671875,149356.15625,149429.828125,149513.328125,149642.078125,149832.515625,0.0
1762982319.110057,149204.25,148947.828125,149513.328125,149327.625,149401.21875,149485.171875,149613.734375,149804.078125,0.0
1762982319.1238923,149105.453125,148848.859375,149414.171875,149228.65625,149302.59375,149386.375,149514.765625,149705.46875,0.0
1762982319.1287115,149000.40625,148743.796875,149308.859375,149123.609375,149197.8125,149281.140625,149409.4375,149600.140625,0.0
1762982319.1287465,148891.59375,148634.640625,149200.3125,149015.328125,149088.734375,149172.59375,149300.71875,149491.515625,0.0
1762982319.128756,148784.296875,148527.609375,149093.109375,148907.6875,148981.0,149065.125,149193.078125,149384.3125,0.0
1762982319.1313124,148642.328125,148385.734375,148951.140625,148765.890625,148839.015625,148922.96875,149051.28125,149242.25,0.0
1762982319.1352618,148476.203125,148219.15625,148784.65625,148599.40625,148672.71875,148756.59375,148884.890625,149075.6875,0.0
1762982319.1493893,148318.859375,148061.625,148627.390625,148441.875,148515.28125,148599.328125,148727.53125,148917.96875,0.0
1762982319.1494243,148145.671875,147888.359375,148454.125,148268.609375,148342.1875,148426.140625,148554.265625,148744.78125,0.0
1762982319.1545067,147898.015625,147640.515625,148206.46875,148021.03125,148094.4375,148178.21875,148306.78125,148497.046875,0.0
1762982319.1545658,147599.65625,147341.8125,147908.109375,147722.59375,147796.09375,147879.859375,148008.25,148198.6875,0.0
1762982319.1563215,147307.65625,147049.453125,147615.75,147430.0625,147504.0,147587.5,147715.71875,147906.0625,0.0
1762982319.1588132,147024.0625,146765.859375,147331.984375,147146.640625,147220.578125,147304.171875,147432.03125,147622.453125,0.0
1762982319.1651385,146711.9375,146453.90625,147019.765625,146834.0625,146908.375,146992.046875,147119.546875,147310.078125,0.0
1762982319.1695988,146353.78125,146095.296875,146661.96875,146475.375,146549.75,146633.796875,146761.296875,146951.546875,0.0
1762982319.1696522,146000.625,145741.515625,146308.890625,146122.296875,146196.234375,146280.1875,146407.59375,146598.125,0.0
1762982319.1939323,145698.875,145439.953125,146006.515625,145820.375,145894.578125,145978.4375,146105.84375,146295.921875,0.0
1762982319.1963327,145393.90625,145134.71875,145701.375,145515.140625,145589.703125,145673.5625,145801.15625,145990.6875,0.0
1762982319.1988227,145072.125,144812.75,145379.6875,145193.265625,145267.84375,145352.0625,145479.109375,145668.65625,0.0
1762982319.2012784,144760.359375,144500.90625,145067.5625,144881.328125,144956.078125,145040.03125,145166.8125,145356.34375,0.0
1762982319.2038455,144479.984375,144220.890625,144787.546875,144600.953125,144675.78125,144759.5625,144886.34375,145076.15625,0.0
1762982319.2063591,144184.9375,143925.484375,144492.234375,144305.8125,144380.75,144464.609375,144591.03125,144781.015625,0.0
1762982319.2088287,143876.671875,143617.125,144184.046875,143997.453125,144072.109375,144156.515625,144282.65625,144472.109375,0.0
1762982319.2110393,143566.953125,143306.96875,143874.078125,143687.125,143762.21875,143846.71875,143972.78125,144161.875,0.0
1762982319.2136655,143250.28125,142990.015625,143557.390625,143370.171875,143445.09375,143529.671875,143655.921875,143845.1875,0.0
1762982319.216912,142917.234375,142656.796875,143224.078125,143037.140625,143111.96875,143196.375,143322.4375,143511.53125,0.0
1762982319.216948,142556.03125,142295.140625,142862.796875,142675.21875,142750.859375,142835.34375,142961.234375,143150.328125,0.0
1762982319.2250826,142174.0,141912.484375,142480.671875,142292.90625,142368.8125,142453.3125,142578.5625,142767.84375,0.0
1762982319.228269,141808.5,141547.34375,142114.984375,141927.859375,142003.40625,142087.625,142213.703125,142402.53125,0.0
1762982319.2283044,141460.0,141199.015625,141766.65625,141579.359375,141654.984375,141739.21875,141865.09375,142053.921875,0.0
1762982319.2298071,141071.515625,140810.28125,141377.921875,141189.984375,141266.15625,141350.921875,141475.734375,141664.46875,0.0
1762982319.2444432,140678.40625,140416.34375,140984.625,140796.421875,140872.5,140957.4375,141082.25,141271.078125,0.0
1762982319.2444785,140318.53125,140056.578125,140624.484375,140436.734375,140512.453125,140597.578125,140722.390625,140911.21875,0.0
1762982319.246287,139945.078125,139683.296875,140251.03125,140062.921875,140139.09375,140224.296875,140348.75,140537.140625,0.0
1762982319.2487059,139500.015625,139237.78125,139805.609375,139617.40625,139694.03125,139778.78125,139903.6875,140091.625,0.0
1762982319.2554317,139080.421875,138817.84375,139385.84375,139197.375,139274.265625,139359.375,139483.5625,139671.5,0.0
1762982319.2554584,138733.078125,138470.5,139038.59375,138850.109375,138926.828125,139012.125,139135.859375,139323.796875,0.0
1762982319.2640977,138400.484375,138137.984375,138706.078125,138517.4375,138594.046875,138679.4375,138803.0,138991.015625,0.0
1762982319.2641225,137992.34375,137729.3125,138297.765625,138109.375,138185.90625,138270.9375,138394.59375,138582.515625,0.0
1762982319.2660203,137527.078125,137263.671875,137832.3125,137643.75,137720.640625,137805.65625,137929.21875,138116.890625,0.0
1762982319.2751896,137073.78125,136809.9375,137378.75,137189.828125,137266.8125,137352.375,137475.578125,137662.875,0.0
1762982319.2782185,136665.359375,136401.609375,136970.78125,136781.421875,136858.578125,136943.6875,137066.984375,137254.296875,0.0
1762982319.2782483,136199.734375,135935.8125,136504.609375,136315.515625,136392.671875,136478.0625,136600.8125,136788.390625,0.0
1762982319.287573,135692.4375,135428.0625,135996.78125,135807.78125,135884.9375,135970.40625,136092.984375,136280.296875,0.0
1762982319.2907455,135189.609375,134924.703125,135493.421875,135304.6875,135381.75,135467.3125,135589.796875,135776.75,0.0
1762982319.2908008,134722.28125,134457.1875,135025.90625,134837.0,134914.0625,135000.25,135122.296875,135309.0625,0.0
1762982319.296237,134236.359375,133971.09375,134539.890625,134350.796875,134428.140625,134514.40625,134636.1875,134822.875,0.0
1762982319.3007631,133729.0625,133463.875,134032.875,133842.96875,133920.578125,134007.125,134128.4375,134314.953125,0.0
1762982319.3008175,133249.484375,132983.671875,133553.109375,133363.125,133441.078125,133527.453125,133648.953125,133834.734375,0.0
1762982319.3139257,132816.03125,132550.046875,133119.75,132929.5,133007.546875,133093.640625,133215.421875,133400.84375,0.0
1762982319.316426,132374.1875,132108.296875,132677.8125,132487.5625,132565.875,132651.4375,132772.9375,132959.171875,0.0
1762982319.3193865,131883.25,131617.0,132186.703125,131996.265625,132074.671875,132160.78125,132281.65625,132467.359375,0.0
1762982319.3194172,131375.609375,131109.34375,131679.234375,131488.25,131566.75,131652.9375,131773.640625,131959.34375,0.0
1762982319.3214452,130869.734375,130603.125,131172.828125,130982.03125,131060.4453125,131146.8125,131267.15625,131452.9375,0.0
1762982319.3351755,130346.4375,130079.2890625,130649.3515625,130458.2890625,130537.234375,130623.6875,130743.8515625,130929.4609375,0.0
1762982319.338334,129770.125,129503.0625,130073.125,129881.8828125,129960.9140625,130047.640625,130167.7109375,130352.6953125,0.0
1762982319.3383875,129195.4140625,128927.8203125,129497.7890625,129306.9921875,129386.03125,129472.7578125,129592.3828125,129777.453125,0.0
1762982319.3397584,128665.0546875,128397.1875,128967.4296875,128776.5390625,128855.578125,128942.2109375,129061.390625,129246.2890625,0.0
1762982319.3438425,128167.4140625,127899.7265625,128469.6953125,128278.0078125,128357.3984375,128444.21875,128563.484375,128747.84375,0.0
1762982319.3482316,127645.453125,127377.6796875,127947.0234375,127755.6953125,127835.3515625,127921.8984375,128041.3515625,128225.6171875,0.0
1762982319.3482664,127089.4296875,126821.03125,127390.640625,127199.2265625,127279.2421875,127365.875,127484.4296875,127668.96875,0.0
1762982319.3562849,126438.015625,126169.609375,126739.3125,126547.625,126627.375,126714.3671875,126832.65625,127017.28125,0.0
1762982319.3603897,125639.515625,125371.296875,125941.1796875,125749.21875,125829.328125,125915.96875,126034.34375,126218.34375,0.0
1762982319.3604236,124629.1328125,124360.4609375,124930.34375,124737.8515625,124818.3125,124905.3125,125023.0546875,125206.5234375,0.0
1762982319.366283,123456.828125,123187.7109375,123757.5,123564.7421875,123645.65625,123732.5546875,123850.125,124032.96875,0.0
1762982319.375748,122191.0,121921.890625,122491.140625,122298.109375,122379.203125,122466.375,122583.3203125,122765.9765625,0.0
1762982319.375806,120861.703125,120591.9609375,121161.125,120967.46875,121049.453125,121136.984375,121252.9453125,121435.3359375,0.0
1762982319.3775933,119417.1484375,119147.3203125,119716.0390625,119522.0234375,119604.4609375,119692.1640625,119807.234375,119989.0,0.0
1762982319.391196,117891.5078125,117621.5,118190.1328125,117995.7578125,118078.28125,118165.71875,118280.4296875,118461.9296875,0.0
1762982319.3941016,116348.6171875,116078.25,116646.875,116451.7890625,116534.578125,116622.5546875,116736.546875,116917.5078125,0.0
1762982319.3941286,114825.65625,114555.109375,115123.3828125,114927.578125,115010.9921875,115098.96875,115212.609375,115392.765625,0.0
1762982319.4030855,113268.2734375,112997.90625,113565.4609375,113369.21875,113453.4375,113541.7734375,113654.2421875,113833.7734375,0.0
1762982319.4031336,111689.9765625,111419.7890625,111986.71875,111790.109375,111874.78125,111963.46875,112074.6953125,112254.1328125,0.0
1762982319.412607,110170.9453125,109900.2265625,110466.8828125,110270.015625,110354.6796875,110443.5546875,110554.5078125,110733.140625,0.0
1762982319.4126613,108780.1328125,108509.0546875,109075.265625,108877.9453125,108963.5078125,109052.2890625,109162.8828125,109340.8984375,0.0
1762982319.4126732,107495.0,107223.3828125,107789.4140625,107591.734375,107678.015625,107766.6171875,107876.8515625,108054.0625,0.0
1762982319.4157495,106273.609375,106001.8984375,106567.4921875,106369.8125,106455.8203125,106545.3203125,106654.390625,106831.6015625,0.0
1762982319.415786,105162.640625,104890.84375,105456.1640625,105258.125,105344.3125,105434.4375,105542.796875,105719.640625,0.0
1762982319.4263284,104172.8125,103900.75,104466.15625,104266.9609375,104354.21875,104444.1640625,104552.1640625,104728.5703125,0.0
1762982319.4354403,103245.9296875,102973.7734375,103538.7421875,103339.1796875,103426.53125,103516.8359375,103624.3046875,103800.4296875,0.0
1762982319.4354942,102308.6796875,102036.34375,102601.0390625,102401.3046875,102489.3671875,102578.953125,102686.3359375,102862.2890625,0.0
1762982319.4382868,101418.5390625,101145.671875,101710.2734375,101510.71875,101598.875,101688.7265625,101795.5703125,101971.4375,0.0
1762982319.4383235,100622.7265625,100349.953125,100914.2890625,100714.375,100802.703125,100892.7421875,100999.3125,101174.90625,0.0
1762982319.4510972,99891.7421875,99619.3125,100183.203125,99982.84375,100071.8046875,100161.8359375,100268.4140625,100443.203125,0.0
1762982319.456388,99134.7265625,98861.6796875,99425.484375,99224.765625,99314.078125,99404.203125,99510.2421875,99684.8515625,0.0
1762982319.4564545,98418.7578125,98145.890625,98708.9765625,98508.8828125,98597.9296875,98688.6796875,98794.0,98968.5234375,0.0
1762982319.4564676,97776.28125,97503.5,98067.03125,97866.1328125,97955.359375,98046.2890625,98151.703125,98325.7734375,0.0
1762982319.458835,97194.953125,96921.4609375,97485.4375,97284.0078125,97373.9453125,97464.4296875,97569.75,97743.6484375,0.0
1762982319.4613264,96605.4921875,96331.9140625,96895.625,96694.0078125,96784.0390625,96874.5234375,96979.3984375,97153.1171875,0.0
1762982319.4751952,96039.7265625,95765.9609375,96329.2265625,96127.8828125,96217.6484375,96308.484375,96413.359375,96586.71875,0.0
1762982319.4800985,95559.7890625,95285.8515625,95849.109375,95647.4140625,95737.53125,95828.4609375,95932.7109375,96106.515625,0.0
1762982319.4801416,95180.5234375,94906.40625,95469.1328125,95267.6953125,95358.0,95449.109375,95553.0,95726.8046875,0.0
1762982319.4801564,94811.9921875,94538.2265625,95100.953125,94899.25,94989.8203125,95080.8359375,95184.7265625,95357.9140625,0.0
1762982319.4825733,94477.7890625,94204.2890625,94766.6640625,94564.6953125,94655.890625,94746.28125,94850.34375,95023.171875,0.0
1762982319.4849236,94225.5703125,93951.984375,94514.4453125,94312.3828125,94403.7578125,94494.0625,94598.0390625,94770.7734375,0.0
1762982319.495181,94067.859375,93794.359375,94357.0859375,94154.671875,94245.7734375,94336.4375,94440.4140625,94613.328125,0.0
1762982319.4991503,93947.78125,93674.2890625,94236.8359375,94034.328125,94125.5234375,94216.0078125,94320.1640625,94493.1640625,0.0
1762982319.4991877,93850.7734375,93577.3671875,94139.7421875,93937.3203125,94028.6953125,94118.90625,94222.796875,94396.15625,0.0
1762982319.5032516,93826.90625,93553.5859375,94115.9609375,93913.8125,94004.734375,94095.84375,94199.1953125,94372.2890625,0.0
1762982319.5033,93916.9375,93643.625,94205.9921875,94003.84375,94094.6796875,94185.609375,94289.3203125,94462.140625,0.0
1762982319.5113175,94056.59375,93783.2734375,94346.0,94143.671875,94234.6015625,94325.6171875,94429.1484375,94602.2421875,0.0
1762982319.515097,94181.1328125,93907.8203125,94470.28125,94268.21875,94358.7890625,94449.984375,94553.515625,94726.515625,0.0
1762982319.5214405,94339.65625,94066.0703125,94628.8828125,94426.203125,94517.3046875,94608.3203125,94712.03125,94884.765625,0.0
1762982319.5303931,94561.5625,94287.796875,94851.0625,94648.2890625,94739.3046875,94830.0546875,94934.125,95106.859375,0.0
1762982319.5304313,94795.453125,94522.2265625,95085.0390625,94882.984375,94973.28125,95064.1171875,95168.6328125,95341.28125,0.0
1762982319.5332844,94970.15625,94696.65625,95259.3828125,95057.59375,95147.984375,95238.8203125,95342.8046875,95515.984375,0.0
1762982319.5333178,95134.390625,94860.71875,95423.7109375,95221.8359375,95312.3125,95403.421875,95507.21875,95680.3125,0.0
1762982319.541466,95324.921875,95051.3359375,95614.1484375,95412.625,95502.8359375,95594.03125,95698.1015625,95871.1953125,0.0
1762982319.5438836,95509.9921875,95236.5859375,95799.3125,95597.8828125,95687.734375,95779.109375,95883.265625,96056.359375,0.0
1762982319.547581,95605.4765625,95331.7109375,95894.9765625,95693.0078125,95783.3984375,95874.328125,95978.6640625,96151.9375,0.0
1762982319.5564404,95648.484375,95374.71875,95938.25,95736.28125,95826.4921875,95917.328125,96021.7578125,96195.4765625,0.0
1762982319.5595396,95677.0078125,95403.1484375,95966.6796875,95764.4453125,95855.015625,95945.8515625,96050.4609375,96223.640625,0.0
1762982319.5595891,95689.609375,95416.296875,95979.203125,95777.3203125,95867.890625,95958.546875,96063.2421875,96236.15625,0.0
1762982319.56103,95610.125,95336.71875,95899.359375,95697.75,95788.2265625,95878.9765625,95983.578125,96156.8515625,0.0
1762982319.5754304,95478.609375,95205.1171875,95767.84375,95566.140625,95656.4375,95747.1875,95851.796875,96024.9765625,0.0
1762982319.5754645,95334.3984375,95060.9921875,95623.625,95421.8359375,95512.140625,95602.8828125,95707.578125,95880.3125,0.0
1762982319.5782373,95206.0078125,94932.6015625,95495.2421875,95294.0703125,95383.9296875,95474.9453125,95579.28125,95752.1953125,0.0
1762982319.5782733,95029.0703125,94755.3984375,95317.859375,95116.6875,95206.6328125,95297.7421875,95401.8125,95574.9921875,0.0
1762982319.5800834,94804.75,94531.25,95093.8046875,94892.0078125,94982.3984375,95073.5078125,95177.3984375,95350.671875,0.0
1762982319.5952458,94592.2265625,94318.5546875,94881.015625,94678.953125,94769.609375,94860.5390625,94964.5234375,95137.7890625,0.0
1762982319.5982358,94435.5859375,94161.9140625,94724.375,94522.578125,94613.2421875,94703.984375,94807.96875,94980.7890625,0.0
1762982319.598272,94266.1640625,93992.7578125,94555.21875,94353.0625,94443.7265625,94534.46875,94638.6328125,94811.2734375,0.0
1762982319.6026824,94057.7578125,93784.3515625,94346.71875,94144.390625,94235.3203125,94326.15625,94429.953125,94602.78125,0.0
1762982319.605096,93858.015625,93584.4375,94146.984375,93944.296875,94035.2265625,94126.5078125,94229.859375,94402.1484375,0.0
1762982319.607581,93695.8359375,93422.0703125,93984.7109375,93781.9375,93872.6796875,93964.234375,94067.859375,94239.875,0.0
1762982319.6113207,93519.96875,93246.1171875,93808.3984375,93605.984375,93696.8203125,93788.546875,93891.4609375,94063.8359375,0.0
1762982319.6207497,93266.3203125,92992.46875,93555.1953125,93352.421875,93443.2578125,93535.171875,93637.8125,93810.546875,0.0
1762982319.6208043,92995.6015625,92721.65625,93284.3828125,93081.609375,93172.7109375,93264.0859375,93367.265625,93539.4609375,0.0
1762982319.623315,92748.75,92475.0703125,93037.265625,92834.484375,92926.1328125,93017.328125,93120.5,93292.34375,0.0
1762982319.6233492,92507.2578125,92233.5859375,92795.953125,92593.0859375,92684.4609375,92775.75,92878.5625,93050.671875,0.0
1762982319.6287284,92218.7421875,91944.9765625,92507.3515625,92304.21875,92395.6796875,92487.234375,92589.9609375,92761.796875,0.0
1762982319.637583,91948.8203125,91675.0546875,92237.25,92034.203125,92125.671875,92217.21875,92320.1328125,92491.703125,0.0
1762982319.64035,91761.875,91488.46875,92050.2109375,91847.2578125,91938.8125,92030.453125,92133.265625,92304.6640625,0.0
1762982319.640364,91664.6015625,91390.7421875,91952.6640625,91749.53125,91841.3515625,91932.8203125,92035.4609375,92207.296875,0.0
1762982319.6425323,91592.265625,91318.5,91880.4296875,91677.296875,91769.46875,91861.0234375,91963.0390625,92134.96875,0.0
1762982319.653523,91603.171875,91329.140625,91891.0625,91688.109375,91780.203125,91871.578125,91973.765625,92145.609375,0.0
1762982319.6565971,91757.7578125,91483.90625,92045.6484375,91842.7890625,91934.515625,92025.7109375,92128.796875,92300.28125,0.0
1762982319.656608,92068.984375,91794.8671875,92357.3203125,92154.3671875,92245.5625,92336.7578125,92439.9375,92611.6875,0.0
1762982319.662274,92462.2890625,92187.984375,92750.265625,92547.7578125,92638.953125,92730.2421875,92833.328125,93005.078125,0.0
1762982319.6660457,92966.3671875,92692.6015625,93254.96875,93052.4609375,93143.2109375,93234.765625,93337.8515625,93510.1328125,0.0
1762982319.6726005,93623.7734375,93350.1875,93912.734375,93710.6796875,93801.421875,93892.3515625,93995.703125,94168.9765625,0.0
1762982319.6819644,94438.8046875,94165.578125,94728.0390625,94526.25,94616.8125,94707.5625,94811.3671875,94984.4609375,0.0
1762982319.6820135,95335.203125,95062.328125,95625.0625,95423.0859375,95513.5703125,95603.8671875,95708.65625,95881.5703125,0.0
1762982319.684163,96301.515625,96028.9140625,96591.640625,96390.0234375,96480.234375,96570.8046875,96675.6796875,96848.6796875,0.0
1762982319.6841989,97375.2890625,97102.5078125,97665.953125,97464.875,97554.1953125,97645.2109375,97749.7265625,97923.984375,0.0
1762982319.6927006,98566.1875,98293.765625,98857.390625,98656.8515625,98745.6328125,98836.203125,98941.5234375,99116.2265625,0.0
1762982319.6949587,99795.71875,99523.6484375,100087.09375,99887.0,99975.2421875,100065.6328125,100171.8515625,100346.734375,0.0
1762982319.7015705,101015.8515625,100743.6953125,101307.5,101107.9453125,101195.6484375,101285.859375,101392.5234375,101567.765625,0.0
1762982319.7038364,102248.7734375,101976.53125,102541.40625,102342.0234375,102429.1953125,102519.5,102626.609375,102802.296875,0.0
1762982319.7076797,103525.6875,103253.6171875,103818.4921875,103619.5625,103706.8203125,103796.9453125,103904.59375,104080.8125,0.0
1762982319.7120857,104787.0390625,104515.328125,105080.203125,104881.453125,104968.359375,105058.296875,105166.84375,105343.328125,0.0
1762982319.7121494,105982.9453125,105711.328125,106276.3828125,106078.609375,106164.625,106254.296875,106363.5546875,106540.578125,0.0
1762982319.7198863,107171.7890625,106900.171875,107465.9375,107268.171875,107353.828125,107443.3203125,107553.203125,107730.5859375,0.0
1762982319.7241583,108385.671875,108114.3203125,108680.265625,108483.125,108568.5078125,108657.828125,108767.8828125,108946.0703125,0.0
1762982319.7241764,109586.046875,109315.1484375,109881.2734375,109684.3984375,109769.6015625,109858.46875,109969.25,110147.5234375,0.0
1762982319.726396,110707.390625,110436.6640625,111003.2421875,110806.8125,110891.390625,110980.171875,111091.390625,111270.03125,0.0
1762982319.7426915,111811.296875,111540.125,112107.328125,111911.078125,111995.2109375,112083.8125,112195.8359375,112374.6484375,0.0
1762982319.7456532,112969.1171875,112697.765625,113265.234375,113069.34375,113153.296875,113241.8125,113354.015625,113533.546875,0.0
1762982319.7456863,114179.9609375,113909.5,114477.1484375,114281.2578125,114364.8515625,114453.2734375,114565.9296875,114746.3515625,0.0
1762982319.7475877,115339.390625,115069.203125,115637.46875,115442.0234375,115524.90625,115613.1484375,115726.6953125,115907.2109375,0.0
1762982319.7500403,116481.1171875,116211.015625,116779.46875,116584.2890625,116667.53125,116755.234375,116869.140625,117049.7421875,0.0
1762982319.753821,117629.90625,117359.8046875,117928.34375,117733.8828125,117816.5859375,117904.0234375,118018.46875,118199.515625,0.0
1762982319.7623425,118758.4921875,118488.65625,119057.5546875,118863.5390625,118945.53125,119032.7890625,119148.2109375,119329.4453125,0.0
1762982319.7654047,119788.7265625,119519.34375,120088.2421875,119894.3125,119976.03125,120063.828125,120179.34375,120360.75,0.0
1762982319.7654493,120762.1875,120492.984375,121062.328125,120868.2265625,120949.8515625,121037.3828125,121153.2578125,121335.828125,0.0
1762982319.7739391,121718.7578125,121449.640625,122018.890625,121825.4140625,121906.6875,121994.0390625,122110.1796875,122293.375,0.0
1762982319.7783267,122656.1875,122387.25,122956.59375,122763.921875,122844.5703125,122931.5625,123048.5078125,123231.609375,0.0
1762982319.7783628,123538.3671875,123269.25,123838.7734375,123646.28125,123726.65625,123813.5625,123930.859375,124114.5078125,0.0
1762982319.7926197,124397.296875,124128.2734375,124697.9765625,124505.8359375,124586.0390625,124672.9375,124790.5078125,124974.2421875,0.0
1762982319.7926736,125261.59375,124993.015625,125562.984375,125370.40625,125450.8671875,125537.6875,125655.5234375,125839.4296875,0.0
1762982319.7926843,126145.4765625,125877.4296875,126447.1328125,126255.265625,126335.109375,126421.6484375,126540.0234375,126724.1171875,0.0
1762982319.7950895,127015.5859375,126747.8984375,127317.6875,127126.359375,127205.9296875,127292.1171875,127411.390625,127595.4765625,0.0
1762982319.7973073,127838.21875,127570.6171875,128140.59375,127949.3515625,128028.828125,128114.5703125,128234.5546875,128418.6484375,0.0
1762982319.808668,128652.984375,128385.4765625,128955.53125,128764.203125,128843.5078125,128929.25,129049.6796875,129233.859375,0.0
1762982319.8339267,129492.421875,129225.546875,129794.890625,129604.1796875,129683.3046875,129769.140625,129889.2109375,130074.28125,0.0
1762982319.8364315,130335.9765625,130069.546875,130639.0703125,130448.2734375,130526.953125,130613.140625,130733.5703125,130919.2734375,0.0
1762982319.8388407,131147.171875,130880.828125,131450.609375,131259.90625,131338.59375,131424.59375,131545.296875,131731.0,0.0
1762982319.8413172,131978.203125,131712.21875,132282.015625,132091.65625,132169.984375,132255.546875,132376.78125,132562.5625,0.0
1762982319.8436427,132869.5,132603.875,133173.578125,132983.40625,133061.28125,133146.75,133268.796875,133454.671875,0.0
1762982319.846089,133816.859375,133551.765625,134121.109375,133931.65625,134009.078125,134094.296875,134216.78125,134403.1875,0.0
1762982319.8489065,134769.578125,134505.03125,135074.1875,134884.5625,134961.890625,135047.375,135170.03125,135356.71875,0.0
1762982319.8510785,135767.1875,135502.890625,136071.890625,135882.515625,135959.765625,136045.0625,136168.265625,136355.125,0.0
1762982319.8538468,136839.4375,136575.421875,137143.96875,136955.140625,137032.03125,137116.875,137240.703125,137428.453125,0.0
1762982319.8563533,137978.671875,137715.265625,138283.8125,138094.984375,138171.875,138256.546875,138380.734375,138568.84375,0.0
1762982319.858852,139120.9375,138858.34375,139426.703125,139238.5,139314.859375,139399.4375,139523.890625,139712.171875,0.0
1762982319.8613958,140289.296875,140027.25,140595.34375,140407.9375,140483.3125,140567.890625,140692.96875,140881.625,0.0
1762982319.8651228,141523.203125,141261.78125,141829.6875,141642.65625,141717.84375,141801.984375,141927.859375,142116.59375,0.0
1762982319.8651779,142824.609375,142564.0,143131.375,142944.421875,143019.515625,143103.03125,143230.078125,143418.8125,0.0
1762982319.865188,144134.78125,143874.515625,144441.71875,144254.859375,144329.78125,144413.5625,144540.15625,144729.78125,0.0
1762982319.8675823,145448.0,145188.359375,145755.375,145569.046875,145643.609375,145727.03125,145854.4375,146044.34375,0.0
1762982319.8714552,146788.65625,146529.640625,147096.5625,146910.78125,146984.546875,147068.140625,147196.171875,147386.609375,0.0
1762982319.882979,148173.125,147915.625,148481.296875,148296.140625,148369.8125,148453.140625,148581.53125,148772.6875,0.0
1762982319.8830123,149538.625,149282.03125,149847.171875,149662.375,149735.5,149819.015625,149947.84375,150139.0,0.0
1762982319.8857567,150867.484375,150611.421875,151176.390625,150991.9375,151064.453125,151147.78125,151277.59375,151468.921875,0.0
1762982319.885793,152193.75,151938.578125,152503.546875,152319.453125,152391.609375,152475.03125,152605.015625,152796.625,0.0
1762982319.887564,153526.984375,153272.171875,153836.96875,153653.40625,153725.828125,153808.53125,153938.96875,154131.015625,0.0
1762982319.8963475,154773.59375,154519.046875,155083.828125,154901.0,154972.875,155054.859375,155186.375,155378.609375,0.0
1762982319.8988583,155642.890625,155389.15625,155953.3125,155770.828125,155842.359375,155924.609375,156056.484375,156248.53125,0.0
1762982319.9025807,156157.703125,155904.671875,156468.125,156286.09375,156357.609375,156439.78125,156571.828125,156764.234375,0.0
1762982319.9107847,156665.0,156411.96875,156975.421875,156793.5625,156865.265625,156947.15625,157079.390625,157271.890625,0.0
1762982319.9108407,157181.765625,156929.1875,157492.28125,157310.515625,157382.21875,157464.203125,157596.609375,157789.203125,0.0
1762982319.9126265,157577.65625,157325.078125,157888.53125,157706.40625,157778.109375,157860.1875,157992.515625,158184.90625,0.0
1762982319.9239175,157916.953125,157664.390625,158228.09375,158045.796875,158117.5,158199.3125,158331.984375,158524.21875,0.0
1762982319.926898,158269.21875,158017.0,158580.53125,158398.140625,158470.203125,158551.84375,158684.96875,158877.015625,0.0
1762982319.9269338,158596.546875,158344.5,158907.671875,158725.5625,158797.625,158879.421875,159012.640625,159204.875,0.0
1762982319.9288375,158862.703125,158610.75,159173.9375,158991.90625,159063.875,159145.40625,159278.890625,159471.203125,0.0
1762982319.9375656,159099.8125,158848.140625,159411.390625,159229.359375,159301.421875,159382.78125,159516.265625,159708.9375,0.0
1762982319.9408445,159333.171875,159081.75,159644.75,159463.25,159534.953125,159616.59375,159749.984375,159942.46875,0.0
1762982319.9408967,159576.796875,159325.125,159888.46875,159706.625,159778.234375,159860.046875,159993.53125,160185.9375,0.0
1762982319.9488246,159759.015625,159507.234375,160070.5,159888.65625,159960.53125,160042.4375,160175.5625,160368.5,0.0
1762982319.9520047,159865.046875,159613.71875,160176.71875,159995.21875,160066.75,160148.375,160281.953125,160474.890625,0.0
1762982319.9520595,159967.78125,159716.71875,160279.71875,160097.6875,160169.390625,160251.015625,160384.859375,160577.625,0.0
1762982319.960084,160079.984375,159828.75,160391.921875,160209.890625,160281.78125,160363.40625,160497.25,160689.734375,0.0
1762982319.962686,160127.453125,159876.046875,160439.578125,160257.28125,160329.515625,160410.96875,160544.8125,160737.125,0.0
1762982319.966339,160151.15625,159900.0,160463.265625,160281.234375,160353.125,160434.65625,160568.59375,160760.734375,0.0
1762982319.9757764,160187.359375,159936.03125,160499.21875,160317.625,160389.328125,160471.046875,160604.796875,160796.9375,0.0
1762982319.9758124,160227.328125,159976.1875,160538.640625,160357.5,160429.109375,160510.5625,160644.59375,160836.8125,0.0
1762982319.9777076,160198.890625,159948.015625,160510.390625,160329.34375,160400.6875,160482.3125,160616.515625,160809.09375,0.0
1762982319.9888232,160083.296875,159832.328125,160394.6875,160213.5625,160285.53125,160366.703125,160500.640625,160693.3125,0.0
1762982319.991918,159952.40625,159701.078125,160263.453125,160082.125,160154.015625,160235.46875,160369.21875,160561.890625,0.0
1762982319.991953,159841.265625,159589.765625,160152.84375,159971.0,160042.703125,160124.59375,160258.4375,160450.578125,0.0
1762982319.9938805,159717.609375,159466.46875,160029.375,159847.609375,159919.234375,160001.03125,160134.515625,160326.921875,0.0
1762982320.0023055,159544.171875,159293.203125,159855.84375,159674.4375,159746.140625,159827.765625,159961.15625,160153.828125,0.0
1762982320.005463,159372.859375,159121.265625,159684.09375,159502.328125,159574.125,159655.484375,159789.328125,159981.8125,0.0
1762982320.0054944,159234.28125,158982.6875,159545.78125,159363.65625,159435.53125,159516.8125,159650.734375,159842.96875,0.0
1762982320.01115,159108.75,158857.4375,159420.421875,159238.578125,159309.921875,159391.734375,159525.390625,159717.609375,0.0
1762982320.013854,158963.296875,158712.140625,159275.140625,159093.375,159164.984375,159246.265625,159380.015625,159572.515625,0.0
1762982320.0232468,158744.515625,158493.1875,159056.546875,158874.0625,158946.21875,159027.390625,159161.234375,159353.46875,0.0
1762982320.0232818,158461.0,158208.875,158772.578125,158589.921875,158662.171875,158743.890625,158877.015625,159069.328125,0.0
1762982320.0250945,158174.0,157922.328125,158485.765625,158303.5625,158374.90625,158457.0625,158590.28125,158782.59375,0.0
1762982320.033921,157816.5625,157564.609375,158127.6875,157945.5625,158017.09375,158099.171875,158232.296875,158424.4375,0.0
1762982320.0383668,157422.984375,157170.59375,157733.671875,157551.46875,157623.34375,157705.515625,157838.109375,158030.234375,0.0
1762982320.0384204,157039.96875,156787.390625,157350.65625,157168.796875,157240.234375,157322.40625,157455.34375,157647.21875,0.0
1762982320.04362,156683.59375,156430.921875,156994.546875,156812.421875,156884.125,156966.296875,157098.890625,157290.65625,0.0
1762982320.0476968,156269.375,156015.90625,156580.140625,156397.21875,156469.453125,156551.625,156683.859375,156875.640625,0.0
1762982320.0569005,155829.484375,155575.84375,156139.90625,155957.0625,156029.125,156111.125,156243.265625,156435.3125,0.0
1762982320.0569355,155394.96875,155141.234375,155705.203125,155522.46875,155594.609375,155677.046875,155808.46875,156000.609375,0.0
1762982320.0594149,154964.46875,154710.828125,155274.71875,155091.875,155163.9375,155247.0,155378.0625,155569.9375,0.0
1762982320.0594509,154498.75,154245.1875,154809.171875,154625.890625,154698.125,154781.015625,154912.078125,155104.390625,0.0
1762982320.0648766,153994.9375,153740.84375,154305.359375,154121.8125,154194.328125,154276.9375,154407.828125,154599.953125,0.0
1762982320.0740707,153480.859375,153226.140625,153791.0,153607.546875,153679.6875,153762.484375,153893.375,154084.96875,0.0
1762982320.0763588,152971.859375,152716.875,153281.390625,153098.109375,153170.171875,153253.3125,153384.203125,153575.359375,0.0
1762982320.083213,152425.578125,152170.421875,152735.109375,152551.734375,152623.890625,152707.484375,152837.5625,153028.8125,0.0
1762982320.083249,151831.296875,151575.5,152140.640625,151956.828125,152029.0625,152112.921875,152242.921875,152433.8125,0.0
1762982320.085108,151211.4375,150955.28125,151520.6875,151336.421875,151408.84375,151492.4375,151622.4375,151813.140625,0.0
1762982320.0913465,150584.0625,150327.46875,150892.703125,150708.515625,150781.296875,150864.359375,150994.4375,151184.96875,0.0
1762982320.1001873,149934.53125,149677.84375,150243.421875,150058.796875,150131.671875,150215.265625,150344.8125,150535.515625,0.0
1762982320.1031673,149226.875,148970.265625,149535.6875,149350.78125,149423.921875,149507.703125,149636.625,149827.59375,0.0
1762982320.103203,148518.59375,148261.1875,148826.765625,148641.875,148715.015625,148798.875,148927.09375,149117.96875,0.0
1762982320.1050875,147837.03125,147578.828125,148144.6875,147959.703125,148033.46875,148116.96875,148245.1875,148435.53125,0.0
1762982320.1177633,147161.75,146903.359375,147469.03125,147283.96875,147358.078125,147441.6875,147569.359375,147759.609375,0.0
1762982320.1206625,146440.140625,146181.125,146747.171875,146561.5625,146635.859375,146719.8125,146847.125,147037.375,0.0
1762982320.1206982,145716.21875,145456.671875,146023.328125,145837.1875,145911.484375,145995.609375,146123.109375,146312.828125,0.0
1762982320.1225972,145014.015625,144754.28125,145320.859375,145134.890625,145208.921875,145293.046875,145420.71875,145610.359375,0.0
1762982320.126511,144284.0,144024.09375,144590.84375,144404.875,144479.0,144563.21875,144690.265625,144879.90625,0.0
1762982320.133248,143390.375,143130.125,143697.140625,143510.546875,143585.203125,143669.6875,143796.203125,143985.203125,0.0
1762982320.1332824,142307.84375,142046.953125,142614.5,142427.296875,142502.5625,142587.234375,142713.296875,142901.859375,0.0
1762982320.141339,141055.34375,140793.734375,141361.46875,141174.15625,141249.984375,141334.5625,141460.265625,141648.015625,0.0
1762982320.144427,139636.09375,139373.765625,139941.78125,139754.375,139830.015625,139915.046875,140039.859375,140227.515625,0.0
1762982320.1444657,137990.828125,137727.4375,138296.0625,138108.390625,138184.296875,138269.234375,138393.515625,138580.734375,0.0
1762982320.146342,136147.25,135883.234375,136452.21875,136263.65625,136340.546875,136425.75,136548.59375,136735.734375,0.0
1762982320.1525905,134180.5625,133915.296875,134484.734375,134295.359375,134372.96875,134458.359375,134580.671875,134766.984375,0.0
1762982320.1613936,132131.1875,131865.109375,132435.078125,132244.734375,132323.046875,132408.875,132530.203125,132716.0,0.0
1762982320.1657815,129947.0546875,129680.1796875,130250.1484375,130059.171875,130138.2109375,130224.7578125,130345.0078125,130529.8984375,0.0
1762982320.165836,127646.5234375,127378.84375,127948.8125,127757.484375,127836.875,127923.78125,128042.9609375,128227.046875,0.0
1762982320.1737037,125331.515625,125063.203125,125632.8125,125440.765625,125520.875,125608.046875,125725.8828125,125909.53125,0.0
1762982320.178358,123070.5859375,122801.5625,123370.90625,123178.3203125,123259.0546875,123346.40625,123463.3515625,123646.1875,0.0
1762982320.1784117,120830.9453125,120561.6484375,121130.90625,120937.25,121018.6953125,121106.3203125,121222.546875,121404.3125,0.0
1762982320.1864524,118637.078125,118367.0625,118935.78125,118741.5,118823.6640625,118911.5546875,119026.7109375,119208.03125,0.0
1762982320.1906724,116592.875,116322.5078125,116890.953125,116696.140625,116778.84375,116866.90625,116981.078125,117161.4140625,0.0
1762982320.1907055,114726.859375,114456.2265625,115023.9609375,114828.78125,114911.9296875,115000.7109375,115113.453125,115293.703125,0.0
1762982320.204485,112954.453125,112683.9140625,113251.015625,113055.21875,113139.078125,113228.21875,113340.25,113519.6015625,0.0
1762982320.2045405,111207.890625,110936.71875,111503.46875,111307.578125,111391.9765625,111481.1171875,111592.4296875,111771.15625,0.0
1762982320.2066872,109544.4765625,109273.484375,109839.515625,109642.8203125,109728.1171875,109817.078125,109927.9375,110105.859375,0.0
1762982320.20672,107983.609375,107712.4375,108277.9375,108080.8828125,108166.7109375,108255.8515625,108365.9140625,108543.4765625,0.0
1762982320.2100668,106472.2734375,106200.828125,106765.9765625,106568.921875,106654.75,106744.15625,106853.5,107030.796875,0.0
1762982320.228385,104916.6796875,104644.703125,105209.9375,105012.34375,105098.7109375,105188.296875,105296.65625,105473.328125,0.0
1762982320.2284405,103370.8359375,103098.765625,103663.90625,103465.6953125,103552.1484375,103642.1796875,103749.828125,103925.6015625,0.0
1762982320.2351153,101880.1484375,101607.8203125,102172.15625,101973.671875,102060.9296875,102150.875,102258.1640625,102433.21875,0.0
1762982320.2351816,100427.8203125,100155.671875,100719.109375,100519.375,100607.9765625,100697.65625,100804.5859375,100979.375,0.0
1762982320.2351956,98925.515625,98652.9140625,99216.359375,99016.1796875,99105.1328125,99195.6171875,99301.296875,99475.7265625,0.0
1762982320.2380152,97436.53125,97163.3984375,97726.75,97526.296875,97615.5234375,97706.2734375,97811.2421875,97985.1328125,0.0
1762982320.238049,96039.7265625,95766.140625,96329.3203125,96128.421875,96218.2734375,96309.0234375,96413.453125,96586.9921875,0.0
1762982320.239859,94751.640625,94477.96875,95040.875,94839.4375,94929.7421875,95020.4921875,95124.828125,95297.3828125,0.0
1762982320.2487988,93477.5,93203.2890625,93765.84375,93564.046875,93654.6171875,93745.8125,93849.34375,94021.6328125,0.0
1762982320.255664,92258.2578125,91984.140625,92546.2421875,92343.8203125,92435.015625,92526.125,92629.1171875,92801.140625,0.0
1762982320.2557003,91182.78125,90908.84375,91470.8515625,91267.9921875,91359.5390625,91450.734375,91553.375,91724.765625,0.0
1762982320.272618,90283.8828125,90009.671875,90571.421875,90368.1953125,90460.015625,90551.484375,90653.765625,90824.890625,0.0
1762982320.2726724,89462.4140625,89187.9375,89749.5,89546.1015625,89638.3671875,89729.828125,89831.9296875,90002.4296875,0.0
1762982320.2726855,88697.4453125,88422.609375,88984.0859375,88780.328125,88873.3125,88964.6875,89066.1640625,89236.3046875,0.0
1762982320.2764652,88083.8515625,87808.3828125,88370.0390625,88166.1953125,88259.0859375,88350.4609375,88451.4921875,88621.8125,0.0
1762982320.2765193,87659.078125,87383.96875,87945.0,87741.2421875,87833.5078125,87925.6015625,88026.359375,88196.9453125,0.0
1762982320.2765324,87322.9921875,87047.625,87608.921875,87404.8046875,87497.7890625,87589.6953125,87690.28125,87860.6015625,0.0
1762982320.278804,87014.71875,86739.4375,87300.640625,87096.3515625,87189.9609375,87281.5078125,87382.0,87552.0546875,0.0
1762982320.287746,86820.703125,86545.3359375,87106.0078125,86902.0703125,86995.5859375,87087.046875,87187.8125,87357.7734375,0.0
1762982320.291298,86766.34375,86491.0625,87051.8203125,86847.53125,86941.40625,87032.421875,87133.09375,87303.0546875,0.0
1762982320.2950816,86764.46875,86489.09375,87050.2109375,86846.0078125,86939.53125,87030.8984375,87131.484375,87301.359375,0.0
1762982320.303625,86725.21875,86450.203125,87011.234375,86806.671875,86900.3671875,86991.828125,87092.5,87262.1953125,0.0
1762982320.3084,86670.1484375,86395.1328125,86956.25,86751.5078125,86845.296875,86936.9375,87037.7890625,87206.9453125,0.0
1762982320.3084357,86547.390625,86272.4609375,86833.671875,86629.015625,86722.8046875,86814.265625,86914.671875,87084.3671875,0.0
1762982320.3145652,86390.9296875,86115.8203125,86676.9375,86472.2890625,86565.984375,86657.8046875,86758.2109375,86927.9921875,0.0
1762982320.3146212,86108.8515625,85833.65625,86394.6796875,86189.8515625,86283.4609375,86375.640625,86475.7734375,86645.46875,0.0
1762982320.3214316,85792.078125,85516.9765625,86077.5546875,85872.9921875,85966.6875,86058.78125,86158.46875,86327.8046875,0.0
1762982320.3257897,85514.0234375,85238.828125,85798.9609375,85594.1328125,85688.453125,85780.546875,85880.234375,86049.484375,0.0
1762982320.325844,85290.7734375,85015.3984375,85575.984375,85370.796875,85465.296875,85557.203125,85656.625,85826.5,0.0
1762982320.33384,85007.890625,84732.78125,85293.6328125,85088.0859375,85182.6796875,85274.859375,85374.1015625,85543.796875,0.0
1762982320.3383741,84654.4609375,84379.1796875,84940.2109375,84734.75,84829.1640625,84921.1640625,85020.671875,85189.5625,0.0
1762982320.3384285,84308.90625,84033.8046875,84594.296875,84388.8359375,84482.984375,84575.6953125,84674.671875,84843.46875,0.0
1762982320.3465626,84016.0078125,83740.6328125,84300.859375,84095.8515625,84190.171875,84282.53125,84381.5078125,84550.484375,0.0
1762982320.349435,83657.9375,83382.203125,83942.515625,83737.0625,83832.0078125,83924.453125,84022.984375,84191.6953125,0.0
1762982320.3494704,83244.0703125,82968.609375,83528.3828125,83323.375,83418.4140625,83510.5,83609.1171875,83777.46875,0.0
1762982320.3551087,82874.546875,82599.0,83158.8671875,82953.3203125,83048.359375,83140.5390625,83239.328125,83407.234375,0.0
1762982320.3596046,82566.8125,82291.4375,82851.390625,82644.953125,82740.7109375,82833.0625,82931.5,83099.40625,0.0
1762982320.3596573,82204.4453125,81929.25,82489.1171875,82283.03125,82378.4296875,82471.234375,82569.1328125,82737.0390625,0.0
1762982320.3677065,81790.046875,81514.8515625,82074.8046875,81868.5390625,81963.9375,82056.7421875,82154.734375,82322.640625,0.0
1762982320.372031,81416.4140625,81141.125,81701.0859375,81495.0,81590.84375,81683.46875,81780.8359375,81948.4765625,0.0
1762982320.372085,81128.703125,80853.1484375,81412.75,81206.9296875,81302.7734375,81395.21875,81492.6796875,81660.2265625,0.0
1762982320.3800716,80840.5390625,80564.9921875,81124.6796875,80918.328125,81014.2578125,81106.5234375,81204.15625,81371.7109375,0.0
1762982320.3827014,80500.6171875,80224.9765625,80784.484375,80577.59375,80673.9765625,80766.515625,80863.96875,81031.25,0.0
1762982320.387714,80235.96875,79960.2421875,80519.8359375,80312.953125,80409.2421875,80501.78125,80599.3203125,80766.515625,0.0
1762982320.39016,80092.296875,79816.65625,80376.0703125,80169.6328125,80265.8359375,80358.3671875,80455.640625,80622.5703125,0.0
1762982320.3939362,79998.328125,79722.7734375,80282.015625,80075.7578125,80172.1328125,80264.578125,80361.765625,80528.6015625,0.0
1762982320.405421,79872.53125,79597.0703125,80156.21875,79949.6015625,80046.3359375,80138.7890625,80235.7890625,80402.625,0.0
1762982320.4054532,79816.828125,79541.1875,80100.34375,79893.71875,79990.1953125,80082.640625,80179.8203125,80346.75,0.0
1762982320.4105577,79889.6953125,79614.4140625,80173.5625,79966.9453125,80063.1484375,80155.59375,80253.046875,80419.96875,0.0
1762982320.410624,80053.1328125,79778.2109375,80337.359375,80130.7421875,80226.8515625,80319.296875,80417.109375,80583.8515625,0.0
1762982320.4125948,80197.796875,79922.15625,80481.3046875,80274.8671875,80370.6171875,80463.515625,80561.4140625,80727.890625,0.0
1762982320.4189339,80407.71875,80131.9921875,80691.6796875,80485.1484375,80581.0859375,80673.6171875,80771.4296875,80938.4453125,0.0
1762982320.42256,80759.0,80483.5390625,81043.2265625,80836.7890625,80932.453125,81024.984375,81122.7109375,81290.3515625,0.0
1762982320.4294417,81230.53125,80954.8046875,81514.671875,81308.3203125,81404.0703125,81496.34375,81594.2421875,81761.8828125,0.0
1762982320.4294767,81678.015625,81401.8359375,81961.9765625,81755.625,81851.46875,81943.734375,82041.8125,82209.984375,0.0
1762982320.431393,82161.9765625,81886.0703125,82446.0234375,82240.4765625,82335.4296875,82427.875,82526.3125,82694.84375,0.0
1762982320.4400904,82755.4609375,82479.640625,83039.5078125,82834.765625,82929.265625,83021.5390625,83119.96875,83288.953125,0.0
1762982320.4444416,83458.6484375,83183.1796875,83743.5859375,83538.21875,83632.9921875,83724.8125,83823.9609375,83992.765625,0.0
1762982320.4444754,84146.09375,83870.546875,84431.0390625,84225.7578125,84320.3515625,84412.171875,84511.59375,84680.6640625,0.0
1762982320.4478009,84846.6875,84571.3125,85131.8046875,84926.890625,85020.8515625,85113.03125,85212.5390625,85382.234375,0.0
1762982320.4736087,85654.03125,85378.390625,85939.3359375,85734.5,85828.2890625,85920.828125,86020.515625,86190.2109375,0.0
1762982320.4768734,86592.5390625,86316.8984375,86878.109375,86673.6328125,86767.0625,86859.421875,86959.46875,87129.609375,0.0
1762982320.476907,87552.859375,87277.84375,87839.234375,87635.0234375,87728.1875,87820.2734375,87920.859375,88091.5390625,0.0
1762982320.4788854,88513.359375,88238.4296875,88799.90625,88595.96875,88688.7734375,88780.6875,88881.984375,89052.84375,0.0
1762982320.481328,89578.015625,89303.5390625,89864.921875,89661.4375,89754.4140625,89845.7890625,89947.5390625,90118.5703125,0.0
1762982320.483853,90783.1328125,90508.921875,91070.6640625,90867.7109375,90959.984375,91051.4453125,91153.4609375,91325.296875,0.0
1762982320.4864385,92042.7890625,91768.7578125,92331.21875,92128.4375,92219.90625,92311.28125,92414.1875,92586.3828125,0.0
1762982320.489143,93287.15625,93013.3046875,93575.8515625,93373.7890625,93464.359375,93555.734375,93659.4453125,93832.0,0.0
1762982320.491357,94616.640625,94342.875,94905.6015625,94703.984375,94794.375,94885.6640625,94989.109375,95162.734375,0.0
1762982320.4962945,96074.6875,95801.28125,96364.7265625,96163.375,96253.3203125,96344.609375,96448.5859375,96622.3046875,0.0
1762982320.4993813,97578.2421875,97304.8359375,97868.546875,97668.2734375,97757.1484375,97848.25,97953.3046875,98127.203125,0.0
1762982320.4994185,99014.1171875,98741.3359375,99304.9609375,99105.2265625,99193.7421875,99284.484375,99390.2578125,99564.8671875,0.0
1762982320.5013092,100458.0390625,100185.4375,100749.5078125,100549.953125,100638.015625,100728.5,100834.984375,101010.0390625,0.0
1762982320.5108883,101941.6640625,101669.4140625,102234.0234375,102034.6484375,102122.4453125,102212.3828125,102319.8515625,102495.1796875,0.0
1762982320.5109437,103426.9765625,103154.6484375,103719.96875,103521.125,103608.296875,103698.0625,103806.0625,103981.9296875,0.0
1762982320.5123506,104817.2578125,104545.375,105110.875,104912.296875,104999.203125,105088.875,105197.6875,105374.265625,0.0
1762982320.5211349,106181.875,105910.078125,106475.7578125,106277.9921875,106364.4453125,106453.671875,106563.375,106740.3125,0.0
1762982320.5243733,107586.546875,107315.109375,107881.234375,107684.09375,107769.65625,107858.8828125,107968.8515625,108146.4140625,0.0
1762982320.5244067,109020.015625,108748.9296875,109315.5,109118.625,109203.3828125,109293.1484375,109403.125,109581.1328125,0.0
1762982320.5352576,110356.734375,110085.8359375,110652.5859375,110456.3359375,110540.9140625,110630.140625,110740.828125,110919.4609375,0.0
1762982320.538314,111658.5,111387.6015625,111954.796875,111758.7265625,111843.125,111931.640625,112043.4921875,112222.484375,0.0
1762982320.5383494,112991.1171875,112720.5703125,113287.8515625,113092.3203125,113176.09375,113264.6953125,113377.0859375,113556.7890625,0.0
1762982320.540096,114337.3125,114067.125,114634.59375,114439.328125,114522.5625,114611.6171875,114724.265625,114904.2421875,0.0
1762982320.5462403,115590.796875,115320.609375,115888.703125,115693.53125,115776.40625,115865.3671875,115979.0078125,116158.625,0.0
1762982320.5532377,116791.5390625,116521.703125,117090.421875,116895.78125,116978.125,117066.640625,117180.7265625,117361.1484375,0.0
1762982320.5532737,117994.328125,117724.5,118293.21875,118098.9375,118181.1015625,118269.1640625,118383.9609375,118564.921875,0.0
1762982320.554842,119221.078125,118951.34375,119520.328125,119326.3125,119408.296875,119496.0078125,119611.5234375,119792.75,0.0
1762982320.5640209,120404.921875,120135.5390625,120704.703125,120510.953125,120592.8515625,120680.46875,120796.25,120977.75,0.0
1762982320.5666997,121520.09375,121251.0703125,121820.5,121626.9375,121708.7421875,121795.9140625,121912.3203125,122094.0859375,0.0
1762982320.5727084,122647.6953125,122379.0234375,122948.1875,122755.1640625,122836.25,122923.6015625,123040.4609375,123222.7578125,0.0
1762982320.576446,123833.0546875,123564.7421875,124134.53125,123942.0390625,124022.1484375,124109.40625,124226.890625,124409.3671875,0.0
1762982320.591616,124993.5546875,124725.6015625,125295.484375,125103.2578125,125183.0078125,125270.1796875,125388.1953125,125571.390625,0.0
1762982320.5916712,126097.1953125,125829.328125,126399.296875,126207.4296875,126287.1796875,126374.0,126492.640625,126676.1953125,0.0
1762982320.591682,127234.5390625,126966.5859375,127536.828125,127344.9609375,127424.53125,127511.078125,127630.5234375,127814.1640625,0.0
1762982320.594092,128435.3671875,128167.5,128737.921875,128546.5,128625.625,128712.171875,128831.796875,129015.9765625,0.0
1762982320.597088,129660.0625,129393.0,129963.1484375,129772.359375,129850.5,129937.578125,130057.4765625,130242.1875,0.0
1762982320.5971425,130833.9765625,130567.5390625,131137.59375,130947.2578125,131025.125,131111.765625,131232.46875,131417.359375,0.0
1762982320.598798,132033.015625,131767.296875,132337.0,132146.921875,132224.796875,132310.796875,132432.125,132617.640625,0.0
1762982320.6075492,133306.34375,133041.171875,133610.953125,133421.140625,133498.125,133584.671875,133706.53125,133892.234375,0.0
1762982320.6106777,134631.890625,134367.421875,134936.6875,134747.59375,134824.484375,134910.484375,135032.96875,135219.03125,0.0
1762982320.610711,135913.453125,135649.796875,136218.421875,136029.765625,136106.484375,136191.953125,136315.078125,136501.75,0.0
1762982320.619187,137199.84375,136936.71875,137505.25,137316.875,137393.40625,137478.53125,137602.171875,137789.296875,0.0
1762982320.6233652,138544.515625,138282.03125,138850.203125,138662.1875,138738.625,138823.46875,138947.921875,139135.234375,0.0
1762982320.6234183,139926.3125,139664.703125,140232.703125,140044.953125,140120.765625,140205.703125,140330.875,140518.625,0.0
1762982320.6288218,141234.953125,140973.703125,141541.71875,141354.40625,141429.859375,141514.171875,141640.421875,141828.171875,0.0
1762982320.6382625,142504.890625,142244.0,142811.921875,142624.875,142699.796875,142784.203125,142910.625,143098.921875,0.0
1762982320.638298,143831.78125,143571.78125,144139.078125,143952.75,144026.953125,144111.453125,144238.234375,144427.234375,0.0
1762982320.65172,145171.546875,144912.53125,145479.546875,145293.5,145367.171875,145451.84375,145579.25,145768.25,0.0
1762982320.6517684,146401.515625,146142.953125,146709.34375,146523.828125,146597.5,146681.8125,146809.65625,146999.109375,0.0
1762982320.654524,147523.390625,147265.640625,147831.859375,147646.328125,147720.0,147803.6875,147932.25,148121.796875,0.0
1762982320.6545787,148629.265625,148371.875,148937.8125,148752.65625,148826.140625,148909.65625,149038.3125,149228.84375,0.0
1762982320.656338,149742.03125,149485.4375,150051.109375,149866.3125,149939.71875,150023.03125,150151.96875,150343.03125,0.0
1762982320.668384,150794.53125,150538.828125,151104.140625,150919.875,150992.65625,151075.984375,151205.625,151396.328125,0.0
1762982320.668439,151756.640625,151501.296875,152066.53125,151882.609375,151954.59375,152038.265625,152168.09375,152359.25,0.0
1762982320.670772,152703.8125,152448.828125,153013.515625,152830.15625,152901.9375,152985.453125,153115.53125,153306.6875,0.0
1762982320.6708255,153674.0625,153419.34375,153983.953125,153800.578125,153872.640625,153955.78125,154086.3125,154278.09375,0.0
1762982320.6789267,154609.53125,154355.25,154919.40625,154736.484375,154808.453125,154891.703125,155022.765625,155214.1875,0.0
1762982320.6881664,155463.625,155209.71875,155773.96875,155590.953125,155663.453125,155745.890625,155877.3125,156069.09375,0.0
1762982320.6882029,156303.609375,156050.59375,156614.484375,156431.46875,156503.703125,156586.3125,156717.828125,156909.96875,0.0
1762982320.6907024,157172.375,156919.796875,157483.328125,157300.859375,157372.46875,157455.0,157587.234375,157779.546875,0.0
1762982320.6907403,158046.0625,157794.03125,158357.46875,158175.171875,158247.3125,158329.125,158461.71875,158654.5625,0.0
1762982320.6935868,158838.484375,158587.0625,159150.0625,158968.125,159040.09375,159121.71875,159254.75,159447.421875,0.0
1762982320.7076936,159599.328125,159348.546875,159911.453125,159729.59375,159801.390625,159883.015625,160016.5,160209.09375,0.0
1762982320.7106898,160379.9375,160129.328125,160691.96875,160510.5625,160582.1875,160663.90625,160797.65625,160990.0625,0.0
1762982320.7107358,161151.53125,160901.1875,161463.5625,161282.6875,161354.21875,161435.75,161569.859375,161762.359375,0.0
1762982320.7220445,161824.671875,161574.953125,162137.328125,161956.359375,162027.984375,162109.25,162243.8125,162436.65625,0.0
1762982320.7221036,162442.828125,162193.296875,162755.75,162574.4375,162646.40625,162727.6875,162862.234375,163055.359375,0.0
1762982320.7257416,163059.46875,162810.46875,163372.84375,163191.4375,163263.5,163344.671875,163479.5,163672.625,0.0
1762982320.7258043,163659.296875,163410.21875,163972.671875,163791.890625,163863.5,163944.421875,164079.609375,164272.71875,0.0
1762982320.7319005,164170.703125,163921.890625,164483.90625,164303.296875,164375.1875,164455.734375,164590.921875,164784.3125,0.0
1762982320.7319543,164604.15625,164355.515625,164917.890625,164737.375,164808.8125,164889.625,165025.078125,165218.296875,0.0
1762982320.740478,165033.578125,164785.296875,165347.75,165167.234375,165238.3125,165319.234375,165454.859375,165647.984375,0.0
1762982320.7405307,165484.640625,165236.703125,165798.8125,165618.921875,165690.0,165770.46875,165906.375,166099.3125,0.0
1762982320.7514515,165889.296875,165641.90625,166203.828125,166023.9375,166094.84375,166175.484375,166311.65625,166504.765625,0.0
1762982320.754524,166236.1875,165988.71875,166550.640625,166370.5625,166441.640625,166522.203125,166658.640625,166851.75,0.0
1762982320.754579,166588.28125,166340.703125,166902.625,166723.015625,166793.734375,166874.203125,167010.984375,167203.9375,0.0
1762982320.7561357,166963.78125,166717.109375,167278.3125,167099.234375,167169.78125,167250.515625,167386.953125,167580.25,0.0
1762982320.7657125,167317.65625,167071.15625,167632.640625,167453.109375,167524.359375,167604.75,167740.90625,167934.390625,0.0
1762982320.7657483,167625.390625,167378.625,167940.5625,167760.75,167831.921875,167912.125,168048.734375,168242.21875,0.0
1762982320.7675927,167948.25,167701.484375,168263.3125,168083.25,168154.59375,168235.15625,168372.03125,168565.0625,0.0
1762982320.7764547,168298.625,168051.859375,168614.0625,168434.171875,168505.15625,168585.71875,168722.6875,168915.984375,0.0
1762982320.7806885,168627.296875,168380.703125,168942.8125,168763.375,168834.171875,168914.109375,169051.4375,169245.0,0.0
1762982320.780724,168863.953125,168617.453125,169179.640625,168999.765625,169070.921875,169150.59375,169288.359375,169481.484375,0.0
1762982320.7888122,169086.84375,168840.890625,169402.8125,169223.28125,169293.8125,169374.015625,169511.703125,169705.1875,0.0
